TP9,AF7,AF8,TP10,Timestamp
809.89013671875,796.5933837890625,798.6080322265625,728.09521484375,1736991213906994.0
812.7106323242188,786.1171875,783.6996459960938,712.7838745117188,1736991213907040.0
839.7069702148438,793.3699340820312,776.4468994140625,740.989013671875,1736991213907046.0
854.6153564453125,841.3186645507812,791.3552856445312,783.6996459960938,1736991213907051.0
770.4029541015625,815.5311279296875,803.8461303710938,759.9267578125,1736991213907057.0
821.1721801757812,801.025634765625,796.5933837890625,732.12451171875,1736991213907029.0
729.7069702148438,767.9853515625,787.3259887695312,728.901123046875,1736991213907066.0
750.6593627929688,780.879150390625,784.908447265625,722.05126953125,1736991213907078.0
749.8534545898438,788.1318969726562,797.3992919921875,724.06591796875,1736991213907087.0
763.1502075195312,779.6703491210938,799.010986328125,737.7655639648438,1736991213907095.0
788.5347900390625,785.3113403320312,793.3699340820312,752.6740112304688,1736991213907107.0
807.069580078125,804.6520385742188,796.996337890625,766.3735961914062,1736991213907119.0
809.084228515625,821.1721801757812,810.2930297851562,782.087890625,1736991213973061.0
801.8314819335938,815.1282348632812,803.8461303710938,782.893798828125,1736991213973108.0
786.5201416015625,784.1025390625,777.2527465820312,757.912109375,1736991213973139.0
772.0146484375,782.087890625,774.4322509765625,753.8828125,1736991213973190.0
798.2051391601562,783.6996459960938,783.2966918945312,767.5823974609375,1736991213973123.0
782.893798828125,783.2966918945312,789.3406372070312,755.8974609375,1736991213973236.0
791.3552856445312,805.054931640625,782.893798828125,763.5531005859375,1736991213973254.0
800.2197875976562,816.7399291992188,773.2234497070312,783.6996459960938,1736991213973278.0
811.90478515625,808.6813354492188,802.2344360351562,788.1318969726562,1736991213973311.0
822.3809814453125,788.1318969726562,807.4725341796875,780.4761962890625,1736991213973352.0
833.2600708007812,789.7435913085938,803.4432373046875,782.4908447265625,1736991213973371.0
802.2344360351562,794.5787353515625,797.3992919921875,765.5677490234375,1736991213973398.0
777.6557006835938,804.2490844726562,801.8314819335938,760.7326049804688,1736991213994078.0
776.4468994140625,809.084228515625,811.098876953125,780.4761962890625,1736991213994097.0
769.1941528320312,794.1758422851562,804.6520385742188,781.6849975585938,1736991213994667.0
779.6703491210938,797.8021850585938,793.3699340820312,773.2234497070312,1736991213994682.0
780.4761962890625,794.1758422851562,789.3406372070312,768.3883056640625,1736991213994687.0
765.1648559570312,792.5640869140625,779.6703491210938,779.6703491210938,1736991213994700.0
757.106201171875,782.893798828125,807.069580078125,770.8058471679688,1736991213994693.0
786.923095703125,794.1758422851562,790.1465454101562,782.4908447265625,1736991213994727.0
795.3846435546875,807.87548828125,755.4945068359375,791.7582397460938,1736991213994715.0
769.5970458984375,788.1318969726562,804.6520385742188,761.1355590820312,1736991213994737.0
752.2710571289062,784.5054931640625,790.5494384765625,745.4212646484375,1736991213994748.0
756.3003540039062,785.7142944335938,789.7435913085938,752.6740112304688,1736991213994769.0
760.3296508789062,796.1904907226562,805.8607788085938,750.6593627929688,1736991214056999.0
765.5677490234375,785.3113403320312,787.3259887695312,740.5860595703125,1736991214057046.0
757.912109375,793.3699340820312,805.8607788085938,736.5567626953125,1736991214057038.0
773.6264038085938,789.3406372070312,787.7289428710938,755.8974609375,1736991214057052.0
787.7289428710938,784.5054931640625,809.084228515625,780.879150390625,1736991214057067.0
799.8168334960938,795.7875366210938,817.1428833007812,783.6996459960938,1736991214057073.0
800.6226806640625,800.2197875976562,805.8607788085938,773.6264038085938,1736991214057078.0
778.05859375,788.1318969726562,790.5494384765625,768.3883056640625,1736991214057061.0
774.8351440429688,798.6080322265625,796.1904907226562,765.5677490234375,1736991214057089.0
778.8644409179688,798.6080322265625,783.2966918945312,768.3883056640625,1736991214057095.0
789.3406372070312,793.7728881835938,800.2197875976562,766.7765502929688,1736991214057084.0
793.3699340820312,789.7435913085938,794.5787353515625,779.6703491210938,1736991214057103.0
773.2234497070312,786.923095703125,794.5787353515625,775.6410522460938,1736991214100010.0
791.7582397460938,830.03662109375,792.5640869140625,796.5933837890625,1736991214100059.0
751.8681030273438,807.069580078125,771.6116943359375,770.8058471679688,1736991214100052.0
796.1904907226562,801.8314819335938,799.8168334960938,791.3552856445312,1736991214100068.0
781.2820434570312,787.7289428710938,800.6226806640625,780.879150390625,1736991214100924.0
761.5384521484375,794.1758422851562,793.7728881835938,774.8351440429688,1736991214100962.0
753.8828125,794.1758422851562,787.7289428710938,766.7765502929688,1736991214100974.0
782.087890625,807.069580078125,807.4725341796875,787.3259887695312,1736991214100988.0
802.6373901367188,809.084228515625,813.113525390625,802.2344360351562,1736991214100998.0
782.4908447265625,793.3699340820312,802.6373901367188,781.2820434570312,1736991214101005.0
787.3259887695312,806.6666870117188,812.3076782226562,794.981689453125,1736991214101013.0
780.0732421875,807.87548828125,814.3223266601562,800.6226806640625,1736991214101021.0
737.7655639648438,777.6557006835938,783.2966918945312,766.3735961914062,1736991214143070.0
742.6007080078125,787.3259887695312,807.069580078125,749.4505615234375,1736991214143159.0
721.6483764648438,794.5787353515625,818.3516235351562,734.5421142578125,1736991214143171.0
701.098876953125,790.5494384765625,807.069580078125,722.8571166992188,1736991214143183.0
713.5897216796875,782.893798828125,788.5347900390625,730.10986328125,1736991214143195.0
692.2344360351562,771.6116943359375,796.1904907226562,712.3809814453125,1736991214143207.0
679.3406372070312,777.6557006835938,809.4871826171875,697.87548828125,1736991214143218.0
684.1758422851562,781.2820434570312,807.4725341796875,706.3369750976562,1736991214143230.0
706.7399291992188,774.8351440429688,813.91943359375,718.4249267578125,1736991214143241.0
760.3296508789062,781.6849975585938,824.7985229492188,752.2710571289062,1736991214143286.0
728.09521484375,774.029296875,777.2527465820312,746.2271118164062,1736991214143131.0
730.915771484375,779.2673950195312,789.3406372070312,744.6153564453125,1736991214143148.0
767.9853515625,793.3699340820312,805.8607788085938,768.7911987304688,1736991214185027.0
731.7216186523438,789.3406372070312,782.893798828125,750.6593627929688,1736991214185095.0
724.4688720703125,774.029296875,784.1025390625,751.4652099609375,1736991214185113.0
744.6153564453125,795.7875366210938,789.3406372070312,772.4176025390625,1736991214185123.0
755.8974609375,805.8607788085938,804.6520385742188,793.7728881835938,1736991214185133.0
775.6410522460938,785.7142944335938,815.5311279296875,811.098876953125,1736991214185141.0
789.7435913085938,798.2051391601562,810.2930297851562,823.1868286132812,1736991214186459.0
768.3883056640625,792.5640869140625,784.908447265625,810.2930297851562,1736991214186550.0
767.5823974609375,781.6849975585938,765.970703125,799.4139404296875,1736991214186564.0
787.7289428710938,792.967041015625,765.1648559570312,802.2344360351562,1736991214186573.0
808.2783813476562,813.91943359375,782.4908447265625,816.3369750976562,1736991214186582.0
827.2161254882812,818.7545776367188,781.2820434570312,830.4395751953125,1736991214186591.0
818.7545776367188,792.967041015625,797.3992919921875,807.4725341796875,1736991214228163.0
817.94873046875,779.2673950195312,799.010986328125,799.010986328125,1736991214228184.0
830.4395751953125,792.5640869140625,788.937744140625,797.3992919921875,1736991214228342.0
837.6923217773438,804.6520385742188,796.5933837890625,798.6080322265625,1736991214228358.0
860.6593627929688,801.4285888671875,779.2673950195312,807.069580078125,1736991214228372.0
836.886474609375,803.4432373046875,765.1648559570312,794.1758422851562,1736991214228383.0
776.0439453125,801.025634765625,783.2966918945312,783.6996459960938,1736991214228393.0
772.4176025390625,781.2820434570312,802.6373901367188,796.5933837890625,1736991214228402.0
791.7582397460938,772.4176025390625,772.8204956054688,810.6959838867188,1736991214228449.0
820.3662719726562,802.2344360351562,784.5054931640625,830.8424682617188,1736991214228461.0
814.3223266601562,813.113525390625,819.96337890625,822.3809814453125,1736991214228471.0
796.5933837890625,800.6226806640625,809.4871826171875,795.7875366210938,1736991214228481.0
800.6226806640625,794.981689453125,790.1465454101562,793.3699340820312,1736991214291999.0
844.5421142578125,804.6520385742188,805.054931640625,830.4395751953125,1736991214292058.0
836.08056640625,790.5494384765625,802.6373901367188,814.7252807617188,1736991214292088.0
832.8571166992188,784.908447265625,794.1758422851562,805.8607788085938,1736991214292124.0
816.3369750976562,797.8021850585938,788.937744140625,792.5640869140625,1736991214292144.0
820.3662719726562,799.010986328125,785.3113403320312,810.6959838867188,1736991214292042.0
849.3773193359375,813.5164794921875,798.6080322265625,835.2747192382812,1736991214292051.0
805.8607788085938,799.010986328125,775.2380981445312,781.2820434570312,1736991214292158.0
874.7619018554688,816.7399291992188,796.5933837890625,834.06591796875,1736991214292966.0
841.7216186523438,779.6703491210938,775.2380981445312,790.5494384765625,1736991214292975.0
812.7106323242188,789.7435913085938,761.1355590820312,786.1171875,1736991214292925.0
857.032958984375,817.94873046875,792.5640869140625,823.1868286132812,1736991214292955.0
821.97802734375,787.7289428710938,781.2820434570312,765.1648559570312,1736991214337042.0
807.069580078125,814.3223266601562,804.2490844726562,788.937744140625,1736991214337056.0
775.6410522460938,809.89013671875,798.6080322265625,776.4468994140625,1736991214337068.0
821.97802734375,775.2380981445312,773.6264038085938,757.5091552734375,1736991214336995.0
786.1171875,805.8607788085938,793.3699340820312,771.6116943359375,1736991214337205.0
816.7399291992188,811.098876953125,788.1318969726562,783.6996459960938,1736991214337232.0
819.96337890625,775.6410522460938,776.4468994140625,782.087890625,1736991214337245.0
822.3809814453125,774.4322509765625,802.2344360351562,781.6849975585938,1736991214337298.0
833.2600708007812,798.6080322265625,828.02197265625,801.025634765625,1736991214337311.0
809.084228515625,814.3223266601562,813.5164794921875,799.8168334960938,1736991214337320.0
768.7911987304688,809.4871826171875,778.05859375,777.2527465820312,1736991214337330.0
780.0732421875,799.010986328125,770.0,779.2673950195312,1736991214337346.0
798.2051391601562,801.025634765625,787.3259887695312,786.923095703125,1736991214380046.0
820.3662719726562,796.996337890625,801.8314819335938,796.996337890625,1736991214380116.0
785.3113403320312,787.3259887695312,788.5347900390625,780.879150390625,1736991214380096.0
800.2197875976562,799.8168334960938,776.4468994140625,767.5823974609375,1736991214380125.0
772.0146484375,792.1611938476562,765.1648559570312,753.8828125,1736991214380133.0
777.2527465820312,795.7875366210938,789.7435913085938,779.2673950195312,1736991214380142.0
801.4285888671875,809.89013671875,778.8644409179688,799.4139404296875,1736991214380149.0
817.5457763671875,819.1575317382812,794.1758422851562,820.3662719726562,1736991214380157.0
790.952392578125,780.4761962890625,789.3406372070312,787.7289428710938,1736991214380108.0
799.4139404296875,788.1318969726562,828.02197265625,804.2490844726562,1736991214380166.0
773.6264038085938,763.1502075195312,799.010986328125,779.2673950195312,1736991214381135.0
777.2527465820312,783.6996459960938,789.3406372070312,773.6264038085938,1736991214381159.0
798.2051391601562,807.87548828125,807.87548828125,773.2234497070312,1736991214424005.0
775.2380981445312,789.7435913085938,785.7142944335938,797.3992919921875,1736991214424058.0
793.7728881835938,806.2637329101562,788.937744140625,796.1904907226562,1736991214424052.0
814.7252807617188,795.3846435546875,817.1428833007812,830.4395751953125,1736991214424064.0
812.3076782226562,800.6226806640625,775.2380981445312,813.91943359375,1736991214424077.0
767.9853515625,811.5018310546875,791.3552856445312,781.2820434570312,1736991214424082.0
756.7033081054688,801.025634765625,795.7875366210938,771.2088012695312,1736991214424088.0
771.2088012695312,786.1171875,793.3699340820312,774.8351440429688,1736991214424104.0
844.945068359375,801.025634765625,805.054931640625,847.7655639648438,1736991214424071.0
794.5787353515625,782.893798828125,791.7582397460938,790.952392578125,1736991214424117.0
837.6923217773438,801.4285888671875,792.967041015625,826.4102783203125,1736991214424126.0
815.1282348632812,820.7692260742188,806.6666870117188,792.1611938476562,1736991214424043.0
837.2893676757812,800.2197875976562,802.2344360351562,814.3223266601562,1736991214466001.0
817.5457763671875,801.4285888671875,795.7875366210938,784.5054931640625,1736991214466048.0
810.6959838867188,808.2783813476562,780.879150390625,780.0732421875,1736991214466054.0
795.7875366210938,801.025634765625,792.5640869140625,788.1318969726562,1736991214466060.0
803.040283203125,805.8607788085938,813.5164794921875,813.113525390625,1736991214466067.0
810.6959838867188,809.89013671875,798.6080322265625,816.3369750976562,1736991214466078.0
809.89013671875,788.1318969726562,798.2051391601562,777.2527465820312,1736991214466040.0
794.5787353515625,796.5933837890625,775.2380981445312,806.6666870117188,1736991214466090.0
774.4322509765625,794.1758422851562,776.4468994140625,797.3992919921875,1736991214466116.0
790.1465454101562,794.981689453125,797.3992919921875,809.4871826171875,1736991214466132.0
797.8021850585938,780.879150390625,805.8607788085938,810.6959838867188,1736991214466143.0
787.7289428710938,783.6996459960938,805.054931640625,798.6080322265625,1736991214466155.0
795.7875366210938,804.6520385742188,795.3846435546875,806.2637329101562,1736991214530068.0
794.5787353515625,805.8607788085938,792.5640869140625,813.5164794921875,1736991214530115.0
786.1171875,801.4285888671875,776.4468994140625,798.6080322265625,1736991214530121.0
804.6520385742188,807.4725341796875,793.7728881835938,819.1575317382812,1736991214530108.0
817.94873046875,811.90478515625,782.893798828125,822.3809814453125,1736991214530131.0
786.923095703125,788.5347900390625,782.087890625,790.1465454101562,1736991214530138.0
780.879150390625,786.5201416015625,808.6813354492188,809.084228515625,1736991214530143.0
804.6520385742188,810.2930297851562,802.6373901367188,839.3040161132812,1736991214530148.0
810.6959838867188,820.7692260742188,784.1025390625,834.4688720703125,1736991214530153.0
794.1758422851562,805.8607788085938,798.6080322265625,823.99267578125,1736991214530158.0
785.3113403320312,793.3699340820312,809.4871826171875,819.96337890625,1736991214530163.0
810.6959838867188,812.7106323242188,784.908447265625,819.96337890625,1736991214530126.0
816.3369750976562,794.5787353515625,798.2051391601562,823.5897216796875,1736991214572087.0
851.7948608398438,803.040283203125,807.4725341796875,827.6190185546875,1736991214572107.0
841.7216186523438,811.90478515625,815.1282348632812,825.6043701171875,1736991214572117.0
796.5933837890625,799.8168334960938,790.5494384765625,808.6813354492188,1736991214572131.0
788.937744140625,809.084228515625,778.4615478515625,793.3699340820312,1736991214572141.0
793.3699340820312,815.5311279296875,790.5494384765625,798.6080322265625,1736991214572153.0
784.5054931640625,810.6959838867188,803.8461303710938,814.3223266601562,1736991214572165.0
778.8644409179688,807.87548828125,794.5787353515625,807.069580078125,1736991214572177.0
791.3552856445312,795.3846435546875,791.7582397460938,796.1904907226562,1736991214572188.0
801.8314819335938,781.6849975585938,793.3699340820312,805.4578857421875,1736991214572202.0
807.87548828125,788.937744140625,792.5640869140625,828.8278198242188,1736991214572213.0
821.5750732421875,813.91943359375,801.8314819335938,827.2161254882812,1736991214572225.0
799.8168334960938,799.8168334960938,778.05859375,789.3406372070312,1736991214614080.0
792.5640869140625,794.5787353515625,782.4908447265625,780.0732421875,1736991214614096.0
804.2490844726562,810.2930297851562,801.4285888671875,792.5640869140625,1736991214614778.0
804.6520385742188,808.2783813476562,808.6813354492188,792.967041015625,1736991214614784.0
806.2637329101562,805.4578857421875,802.6373901367188,796.1904907226562,1736991214614790.0
801.4285888671875,788.937744140625,783.6996459960938,786.5201416015625,1736991214614795.0
819.1575317382812,786.1171875,789.7435913085938,805.4578857421875,1736991214614800.0
826.4102783203125,809.084228515625,791.3552856445312,812.7106323242188,1736991214614805.0
820.7692260742188,826.00732421875,778.8644409179688,800.2197875976562,1736991214614821.0
816.7399291992188,819.1575317382812,784.908447265625,784.908447265625,1736991214614827.0
806.6666870117188,803.040283203125,802.6373901367188,774.8351440429688,1736991214614835.0
805.4578857421875,809.084228515625,806.6666870117188,795.7875366210938,1736991214614763.0
817.5457763671875,803.4432373046875,799.010986328125,770.8058471679688,1736991214657045.0
818.3516235351562,811.5018310546875,806.6666870117188,764.7619018554688,1736991214657082.0
796.5933837890625,800.6226806640625,815.5311279296875,753.076904296875,1736991214657089.0
786.923095703125,794.1758422851562,799.8168334960938,744.2124633789062,1736991214657094.0
776.4468994140625,796.996337890625,794.981689453125,752.2710571289062,1736991214657100.0
798.2051391601562,809.4871826171875,812.3076782226562,782.4908447265625,1736991214657105.0
808.6813354492188,800.2197875976562,789.7435913085938,785.7142944335938,1736991214657110.0
807.069580078125,787.3259887695312,765.1648559570312,780.4761962890625,1736991214657116.0
803.040283203125,801.8314819335938,781.6849975585938,786.923095703125,1736991214657121.0
781.2820434570312,793.3699340820312,803.4432373046875,776.0439453125,1736991214657126.0
766.7765502929688,777.6557006835938,807.069580078125,759.120849609375,1736991214657133.0
769.1941528320312,795.3846435546875,801.4285888671875,758.3150024414062,1736991214657138.0
791.7582397460938,797.8021850585938,790.1465454101562,762.3442993164062,1736991214720038.0
822.7838745117188,805.054931640625,795.7875366210938,773.6264038085938,1736991214720075.0
841.3186645507812,812.7106323242188,802.6373901367188,792.967041015625,1736991214720082.0
801.8314819335938,782.893798828125,780.0732421875,790.952392578125,1736991214720088.0
760.3296508789062,776.4468994140625,790.5494384765625,790.952392578125,1736991214720728.0
782.087890625,796.5933837890625,817.5457763671875,801.4285888671875,1736991214720742.0
784.1025390625,784.5054931640625,803.8461303710938,790.5494384765625,1736991214720748.0
764.7619018554688,774.4322509765625,772.4176025390625,776.0439453125,1736991214720753.0
794.981689453125,790.952392578125,772.8204956054688,790.1465454101562,1736991214720758.0
820.3662719726562,801.025634765625,782.087890625,796.5933837890625,1736991214720763.0
814.3223266601562,796.1904907226562,784.5054931640625,779.2673950195312,1736991214720768.0
821.1721801757812,795.3846435546875,805.054931640625,796.1904907226562,1736991214720773.0
801.8314819335938,798.6080322265625,821.97802734375,812.7106323242188,1736991214763002.0
777.6557006835938,809.4871826171875,788.5347900390625,793.7728881835938,1736991214763041.0
781.2820434570312,808.2783813476562,779.2673950195312,793.7728881835938,1736991214763056.0
763.9560546875,774.8351440429688,806.2637329101562,783.6996459960938,1736991214763080.0
776.4468994140625,790.952392578125,810.2930297851562,791.7582397460938,1736991214763066.0
762.3442993164062,787.7289428710938,792.1611938476562,789.7435913085938,1736991214763106.0
779.2673950195312,808.2783813476562,782.4908447265625,790.952392578125,1736991214763160.0
810.6959838867188,799.8168334960938,787.3259887695312,800.2197875976562,1736991214763176.0
821.1721801757812,799.010986328125,801.025634765625,826.8131713867188,1736991214763187.0
805.054931640625,815.5311279296875,803.4432373046875,834.4688720703125,1736991214763205.0
797.8021850585938,815.93408203125,791.3552856445312,817.94873046875,1736991214763219.0
788.1318969726562,788.937744140625,794.1758422851562,788.1318969726562,1736991214763244.0
785.3113403320312,771.2088012695312,807.069580078125,775.6410522460938,1736991214806041.0
771.6116943359375,790.5494384765625,799.010986328125,792.5640869140625,1736991214806091.0
788.5347900390625,796.1904907226562,788.937744140625,786.5201416015625,1736991214806104.0
776.8497924804688,784.908447265625,808.6813354492188,789.7435913085938,1736991214806080.0
809.89013671875,806.6666870117188,796.5933837890625,806.2637329101562,1736991214806129.0
836.886474609375,805.4578857421875,821.1721801757812,834.4688720703125,1736991214806138.0
824.3956298828125,816.7399291992188,825.2014770507812,834.4688720703125,1736991214807080.0
799.8168334960938,807.87548828125,805.054931640625,807.069580078125,1736991214807129.0
806.2637329101562,786.5201416015625,789.3406372070312,791.3552856445312,1736991214807142.0
786.923095703125,783.2966918945312,784.908447265625,769.5970458984375,1736991214807167.0
769.5970458984375,786.5201416015625,777.6557006835938,763.1502075195312,1736991214807199.0
798.2051391601562,808.6813354492188,772.0146484375,806.2637329101562,1736991214807222.0
807.87548828125,814.7252807617188,790.1465454101562,831.2454223632812,1736991214850068.0
798.2051391601562,797.8021850585938,819.96337890625,823.99267578125,1736991214850104.0
796.5933837890625,799.4139404296875,820.7692260742188,807.87548828125,1736991214850111.0
780.0732421875,796.1904907226562,799.4139404296875,798.2051391601562,1736991214850117.0
785.3113403320312,786.1171875,798.2051391601562,808.6813354492188,1736991214850122.0
801.025634765625,795.7875366210938,802.2344360351562,820.7692260742188,1736991214850127.0
801.025634765625,795.7875366210938,793.7728881835938,815.5311279296875,1736991214850133.0
818.3516235351562,785.7142944335938,793.7728881835938,818.7545776367188,1736991214850138.0
842.5274658203125,794.5787353515625,794.5787353515625,824.7985229492188,1736991214850143.0
836.886474609375,815.5311279296875,789.7435913085938,825.2014770507812,1736991214850149.0
814.3223266601562,816.7399291992188,784.908447265625,805.054931640625,1736991214850154.0
784.5054931640625,801.4285888671875,791.7582397460938,776.0439453125,1736991214850160.0
754.6886596679688,792.967041015625,801.8314819335938,787.7289428710938,1736991214894013.0
787.3259887695312,797.3992919921875,813.113525390625,835.2747192382812,1736991214894064.0
811.90478515625,799.8168334960938,823.99267578125,859.047607421875,1736991214894070.0
790.1465454101562,788.5347900390625,805.4578857421875,838.09521484375,1736991214894075.0
780.4761962890625,791.7582397460938,787.3259887695312,832.4542236328125,1736991214894084.0
815.93408203125,811.098876953125,792.967041015625,858.2417602539062,1736991214894096.0
762.7472534179688,797.3992919921875,803.040283203125,807.069580078125,1736991214894057.0
806.2637329101562,805.8607788085938,786.1171875,832.05126953125,1736991214894108.0
785.7142944335938,792.5640869140625,770.8058471679688,788.5347900390625,1736991214894744.0
790.952392578125,796.996337890625,800.2197875976562,790.1465454101562,1736991214894758.0
797.8021850585938,804.6520385742188,806.2637329101562,801.025634765625,1736991214894765.0
809.4871826171875,802.2344360351562,790.1465454101562,798.6080322265625,1736991214894771.0
814.3223266601562,792.5640869140625,805.054931640625,797.8021850585938,1736991214937058.0
812.7106323242188,807.87548828125,805.054931640625,787.7289428710938,1736991214937122.0
818.3516235351562,816.7399291992188,810.2930297851562,790.5494384765625,1736991214937129.0
821.97802734375,816.7399291992188,785.3113403320312,792.1611938476562,1736991214937138.0
826.4102783203125,801.8314819335938,770.8058471679688,790.5494384765625,1736991214937146.0
821.97802734375,792.1611938476562,787.7289428710938,772.4176025390625,1736991214937154.0
833.6630249023438,805.054931640625,799.8168334960938,776.4468994140625,1736991214937165.0
849.3773193359375,819.1575317382812,810.6959838867188,790.952392578125,1736991214937173.0
805.8607788085938,797.3992919921875,811.098876953125,795.7875366210938,1736991214937106.0
844.5421142578125,809.4871826171875,811.098876953125,781.2820434570312,1736991214937185.0
799.8168334960938,802.2344360351562,800.6226806640625,790.952392578125,1736991214937116.0
852.6007080078125,813.113525390625,797.3992919921875,780.4761962890625,1736991214937206.0
840.10986328125,806.6666870117188,797.8021850585938,784.908447265625,1736991214982034.0
781.6849975585938,787.3259887695312,804.6520385742188,790.5494384765625,1736991214982085.0
763.5531005859375,788.1318969726562,800.6226806640625,783.6996459960938,1736991214982102.0
782.893798828125,782.893798828125,783.2966918945312,785.3113403320312,1736991214982148.0
780.4761962890625,808.2783813476562,774.029296875,797.8021850585938,1736991214982188.0
784.908447265625,822.3809814453125,782.893798828125,803.040283203125,1736991214982201.0
793.3699340820312,803.4432373046875,802.2344360351562,797.3992919921875,1736991214982214.0
788.5347900390625,786.923095703125,811.5018310546875,782.893798828125,1736991214982225.0
791.7582397460938,780.4761962890625,810.2930297851562,785.3113403320312,1736991214982234.0
802.2344360351562,790.5494384765625,802.2344360351562,796.1904907226562,1736991214982270.0
796.996337890625,790.5494384765625,784.908447265625,787.3259887695312,1736991214983399.0
788.5347900390625,802.2344360351562,794.1758422851562,767.9853515625,1736991214983527.0
786.923095703125,800.6226806640625,799.010986328125,767.9853515625,1736991215047053.0
790.1465454101562,786.923095703125,789.3406372070312,780.879150390625,1736991215047090.0
814.3223266601562,780.4761962890625,808.6813354492188,799.010986328125,1736991215047097.0
828.8278198242188,810.2930297851562,825.6043701171875,799.4139404296875,1736991215047103.0
801.025634765625,816.7399291992188,798.6080322265625,778.4615478515625,1736991215047108.0
784.1025390625,794.1758422851562,781.6849975585938,768.7911987304688,1736991215047118.0
801.025634765625,793.7728881835938,792.5640869140625,778.05859375,1736991215047124.0
815.93408203125,799.8168334960938,801.4285888671875,780.0732421875,1736991215047130.0
813.5164794921875,782.4908447265625,796.996337890625,772.0146484375,1736991215047135.0
815.1282348632812,775.6410522460938,791.7582397460938,776.8497924804688,1736991215047140.0
789.7435913085938,788.1318969726562,790.5494384765625,792.5640869140625,1736991215047145.0
765.1648559570312,785.7142944335938,795.3846435546875,799.4139404296875,1736991215047152.0
778.05859375,794.5787353515625,807.069580078125,809.89013671875,1736991215089007.0
778.4615478515625,804.6520385742188,801.8314819335938,811.5018310546875,1736991215089049.0
793.3699340820312,801.4285888671875,811.098876953125,811.098876953125,1736991215089056.0
785.7142944335938,802.6373901367188,805.8607788085938,797.8021850585938,1736991215089062.0
745.8241577148438,789.3406372070312,762.3442993164062,769.5970458984375,1736991215089068.0
770.4029541015625,799.4139404296875,776.0439453125,783.2966918945312,1736991215089073.0
783.6996459960938,793.3699340820312,812.3076782226562,795.7875366210938,1736991215089079.0
778.4615478515625,771.6116943359375,814.7252807617188,790.5494384765625,1736991215089084.0
821.5750732421875,804.2490844726562,814.3223266601562,821.97802734375,1736991215089090.0
834.06591796875,828.8278198242188,814.3223266601562,836.886474609375,1736991215089102.0
774.029296875,798.2051391601562,804.2490844726562,789.3406372070312,1736991215089108.0
754.2857055664062,790.1465454101562,792.1611938476562,776.0439453125,1736991215089113.0
785.3113403320312,805.8607788085938,790.1465454101562,796.1904907226562,1736991215132028.0
802.6373901367188,797.3992919921875,786.1171875,797.3992919921875,1736991215132064.0
790.952392578125,773.6264038085938,786.923095703125,784.908447265625,1736991215132074.0
794.981689453125,770.8058471679688,802.6373901367188,793.7728881835938,1736991215132080.0
806.6666870117188,791.7582397460938,815.1282348632812,802.6373901367188,1736991215132086.0
799.4139404296875,809.084228515625,814.7252807617188,799.010986328125,1736991215132093.0
778.05859375,799.8168334960938,800.2197875976562,796.1904907226562,1736991215132110.0
775.2380981445312,796.1904907226562,786.5201416015625,787.7289428710938,1736991215132121.0
789.7435913085938,810.6959838867188,793.3699340820312,800.2197875976562,1736991215132129.0
822.7838745117188,812.7106323242188,822.7838745117188,827.2161254882812,1736991215132139.0
808.6813354492188,782.087890625,812.3076782226562,805.8607788085938,1736991215132151.0
782.4908447265625,772.0146484375,790.5494384765625,775.6410522460938,1736991215132177.0
776.0439453125,797.8021850585938,800.6226806640625,772.4176025390625,1736991215175142.0
794.5787353515625,803.040283203125,810.6959838867188,803.8461303710938,1736991215175155.0
788.5347900390625,805.4578857421875,802.2344360351562,794.5787353515625,1736991215175166.0
802.6373901367188,803.8461303710938,792.967041015625,799.010986328125,1736991215175174.0
815.1282348632812,788.1318969726562,799.010986328125,805.8607788085938,1736991215175181.0
805.4578857421875,786.5201416015625,773.6264038085938,785.3113403320312,1736991215175188.0
807.87548828125,799.010986328125,766.3735961914062,788.5347900390625,1736991215175198.0
767.5823974609375,794.5787353515625,791.7582397460938,795.3846435546875,1736991215175210.0
732.12451171875,792.1611938476562,832.8571166992188,784.908447265625,1736991215175223.0
731.3186645507812,780.879150390625,815.93408203125,770.4029541015625,1736991215175234.0
731.3186645507812,752.6740112304688,790.952392578125,772.0146484375,1736991215175245.0
769.1941528320312,786.1171875,796.1904907226562,760.3296508789062,1736991215175127.0
739.3773193359375,746.6300659179688,815.5311279296875,783.6996459960938,1736991215217067.0
756.3003540039062,784.5054931640625,817.5457763671875,807.87548828125,1736991215217102.0
734.945068359375,760.3296508789062,782.893798828125,725.6776733398438,1736991215217729.0
759.120849609375,783.2966918945312,790.952392578125,748.2417602539062,1736991215217734.0
761.1355590820312,819.1575317382812,803.4432373046875,804.6520385742188,1736991215217711.0
786.5201416015625,808.2783813476562,788.937744140625,792.5640869140625,1736991215217741.0
792.967041015625,817.1428833007812,792.5640869140625,810.6959838867188,1736991215217746.0
810.6959838867188,799.4139404296875,817.94873046875,825.6043701171875,1736991215217751.0
787.3259887695312,778.4615478515625,800.2197875976562,805.4578857421875,1736991215217761.0
776.0439453125,796.1904907226562,795.3846435546875,796.1904907226562,1736991215217766.0
815.93408203125,776.8497924804688,818.3516235351562,824.3956298828125,1736991215217756.0
737.3626098632812,782.4908447265625,785.3113403320312,753.4798583984375,1736991215217723.0
790.952392578125,801.025634765625,793.3699340820312,793.3699340820312,1736991215281052.0
807.069580078125,805.4578857421875,803.4432373046875,805.4578857421875,1736991215281090.0
805.8607788085938,807.069580078125,801.4285888671875,797.8021850585938,1736991215281098.0
803.8461303710938,802.6373901367188,780.4761962890625,787.7289428710938,1736991215281105.0
823.99267578125,796.996337890625,766.7765502929688,817.1428833007812,1736991215281111.0
837.2893676757812,799.010986328125,776.0439453125,840.10986328125,1736991215281117.0
796.996337890625,788.937744140625,794.5787353515625,806.6666870117188,1736991215281123.0
768.7911987304688,796.1904907226562,808.6813354492188,780.4761962890625,1736991215281128.0
768.7911987304688,800.6226806640625,812.3076782226562,784.5054931640625,1736991215281133.0
783.6996459960938,795.3846435546875,794.5787353515625,804.2490844726562,1736991215281139.0
796.5933837890625,797.8021850585938,773.6264038085938,802.6373901367188,1736991215281144.0
798.6080322265625,794.5787353515625,791.3552856445312,793.7728881835938,1736991215281149.0
821.1721801757812,806.6666870117188,824.7985229492188,810.2930297851562,1736991215324043.0
803.8461303710938,795.7875366210938,774.8351440429688,790.952392578125,1736991215324091.0
835.6776733398438,808.2783813476562,828.4249267578125,821.5750732421875,1736991215324083.0
788.1318969726562,805.8607788085938,765.5677490234375,781.6849975585938,1736991215324097.0
805.054931640625,815.93408203125,805.054931640625,806.6666870117188,1736991215325431.0
801.025634765625,797.8021850585938,796.1904907226562,795.3846435546875,1736991215325450.0
799.4139404296875,777.2527465820312,780.0732421875,780.4761962890625,1736991215325460.0
827.2161254882812,781.6849975585938,784.5054931640625,798.2051391601562,1736991215325468.0
835.6776733398438,803.040283203125,807.87548828125,806.6666870117188,1736991215325483.0
820.7692260742188,813.5164794921875,816.7399291992188,780.879150390625,1736991215325559.0
790.1465454101562,803.8461303710938,761.94140625,742.1978149414062,1736991215325573.0
798.2051391601562,809.89013671875,774.029296875,737.7655639648438,1736991215325617.0
807.87548828125,795.3846435546875,810.6959838867188,750.2564086914062,1736991215369048.0
788.5347900390625,777.2527465820312,806.2637329101562,761.94140625,1736991215369096.0
779.6703491210938,776.4468994140625,798.2051391601562,772.0146484375,1736991215369111.0
776.4468994140625,789.7435913085938,795.3846435546875,782.087890625,1736991215369121.0
780.879150390625,802.6373901367188,786.1171875,783.2966918945312,1736991215369133.0
789.3406372070312,796.1904907226562,789.3406372070312,780.879150390625,1736991215369144.0
796.5933837890625,801.025634765625,790.952392578125,780.879150390625,1736991215369154.0
799.010986328125,793.7728881835938,791.7582397460938,790.5494384765625,1736991215369163.0
802.2344360351562,789.7435913085938,809.084228515625,793.3699340820312,1736991215369174.0
789.3406372070312,788.1318969726562,782.4908447265625,764.3589477539062,1736991215369184.0
782.4908447265625,785.3113403320312,762.3442993164062,758.3150024414062,1736991215369194.0
799.4139404296875,788.5347900390625,783.6996459960938,767.1795043945312,1736991215369204.0
821.5750732421875,781.2820434570312,799.010986328125,783.6996459960938,1736991215411003.0
845.3479614257812,789.3406372070312,807.4725341796875,806.2637329101562,1736991215411043.0
811.5018310546875,808.2783813476562,799.8168334960938,800.6226806640625,1736991215411050.0
781.2820434570312,803.4432373046875,796.1904907226562,793.3699340820312,1736991215411055.0
796.1904907226562,796.5933837890625,816.3369750976562,801.4285888671875,1736991215411061.0
832.8571166992188,796.5933837890625,809.4871826171875,813.113525390625,1736991215411067.0
846.959716796875,808.2783813476562,791.7582397460938,813.5164794921875,1736991215411680.0
777.6557006835938,785.7142944335938,796.5933837890625,781.2820434570312,1736991215411695.0
747.032958984375,778.05859375,805.054931640625,774.4322509765625,1736991215411701.0
779.2673950195312,808.2783813476562,806.6666870117188,804.6520385742188,1736991215411713.0
798.6080322265625,797.3992919921875,798.2051391601562,813.91943359375,1736991215411729.0
808.2783813476562,798.2051391601562,788.937744140625,819.5604248046875,1736991215411738.0
795.7875366210938,797.3992919921875,783.6996459960938,801.4285888671875,1736991215453137.0
788.1318969726562,787.7289428710938,794.1758422851562,794.981689453125,1736991215453149.0
779.2673950195312,792.1611938476562,804.6520385742188,794.5787353515625,1736991215453155.0
786.923095703125,800.6226806640625,801.8314819335938,784.1025390625,1736991215453160.0
799.010986328125,802.6373901367188,800.2197875976562,791.3552856445312,1736991215453166.0
819.1575317382812,809.89013671875,803.8461303710938,811.098876953125,1736991215453185.0
821.1721801757812,810.2930297851562,795.7875366210938,806.2637329101562,1736991215453192.0
796.1904907226562,792.5640869140625,782.4908447265625,783.2966918945312,1736991215453204.0
801.8314819335938,792.1611938476562,790.952392578125,781.6849975585938,1736991215453220.0
792.967041015625,797.8021850585938,797.8021850585938,796.5933837890625,1736991215453233.0
782.893798828125,799.4139404296875,788.937744140625,811.90478515625,1736991215453247.0
805.4578857421875,803.8461303710938,788.1318969726562,813.91943359375,1736991215453258.0
815.1282348632812,801.4285888671875,788.1318969726562,802.2344360351562,1736991215517057.0
770.4029541015625,782.893798828125,795.3846435546875,790.1465454101562,1736991215517120.0
784.908447265625,801.025634765625,796.1904907226562,787.7289428710938,1736991215517126.0
798.2051391601562,799.4139404296875,790.1465454101562,788.937744140625,1736991215517132.0
820.3662719726562,803.4432373046875,781.2820434570312,804.2490844726562,1736991215517137.0
832.4542236328125,813.5164794921875,796.1904907226562,811.5018310546875,1736991215517142.0
778.4615478515625,778.4615478515625,789.3406372070312,791.3552856445312,1736991215517111.0
834.4688720703125,802.6373901367188,817.94873046875,808.2783813476562,1736991215517149.0
834.06591796875,795.7875366210938,815.93408203125,798.6080322265625,1736991215517933.0
830.4395751953125,805.4578857421875,804.2490844726562,797.3992919921875,1736991215517945.0
812.7106323242188,801.8314819335938,792.1611938476562,819.1575317382812,1736991215517951.0
787.3259887695312,790.5494384765625,792.1611938476562,811.90478515625,1736991215517956.0
787.3259887695312,804.2490844726562,811.5018310546875,812.7106323242188,1736991215560047.0
758.7179565429688,794.5787353515625,788.1318969726562,815.1282348632812,1736991215560095.0
780.4761962890625,809.084228515625,781.6849975585938,823.1868286132812,1736991215560101.0
805.8607788085938,810.6959838867188,784.1025390625,833.2600708007812,1736991215560106.0
828.4249267578125,813.91943359375,803.040283203125,832.4542236328125,1736991215560112.0
812.7106323242188,811.098876953125,823.5897216796875,804.2490844726562,1736991215560117.0
782.893798828125,782.087890625,814.7252807617188,782.4908447265625,1736991215560122.0
803.040283203125,802.6373901367188,796.1904907226562,786.5201416015625,1736991215560133.0
827.6190185546875,816.3369750976562,799.4139404296875,801.8314819335938,1736991215560138.0
823.1868286132812,811.90478515625,793.3699340820312,799.4139404296875,1736991215560149.0
772.0146484375,773.2234497070312,793.7728881835938,771.2088012695312,1736991215560127.0
770.4029541015625,800.2197875976562,807.4725341796875,815.1282348632812,1736991215560087.0
808.6813354492188,815.93408203125,792.1611938476562,792.967041015625,1736991215603039.0
798.6080322265625,814.7252807617188,804.2490844726562,807.87548828125,1736991215603075.0
808.2783813476562,806.6666870117188,820.7692260742188,826.00732421875,1736991215603083.0
788.937744140625,792.1611938476562,807.069580078125,805.4578857421875,1736991215603089.0
781.2820434570312,784.5054931640625,803.040283203125,802.2344360351562,1736991215603094.0
780.0732421875,790.1465454101562,799.010986328125,809.4871826171875,1736991215603099.0
770.0,803.8461303710938,782.087890625,814.7252807617188,1736991215603104.0
763.5531005859375,800.6226806640625,845.7509155273438,809.89013671875,1736991215603115.0
782.893798828125,811.90478515625,813.91943359375,833.2600708007812,1736991215603110.0
724.4688720703125,767.5823974609375,836.4835205078125,730.10986328125,1736991215603120.0
711.1721801757812,755.4945068359375,818.7545776367188,652.3442993164062,1736991215603763.0
698.6813354492188,757.106201171875,819.1575317382812,643.8828125,1736991215603785.0
690.2197875976562,757.106201171875,827.2161254882812,653.9560546875,1736991215646084.0
651.94140625,751.4652099609375,816.3369750976562,659.1941528320312,1736991215646167.0
663.6264038085938,771.2088012695312,836.08056640625,669.2673950195312,1736991215646180.0
669.6703491210938,782.4908447265625,832.8571166992188,668.4615478515625,1736991215646195.0
645.4945068359375,775.2380981445312,832.8571166992188,661.6116943359375,1736991215646218.0
635.018310546875,757.912109375,838.4981689453125,664.4322509765625,1736991215646231.0
662.8204956054688,763.1502075195312,830.8424682617188,675.7142944335938,1736991215646244.0
711.1721801757812,771.2088012695312,826.8131713867188,701.098876953125,1736991215646256.0
747.032958984375,763.9560546875,807.4725341796875,724.8717651367188,1736991215646268.0
723.2600708007812,767.1795043945312,801.4285888671875,722.05126953125,1736991215646279.0
676.923095703125,759.5238037109375,826.8131713867188,658.7911987304688,1736991215646147.0
699.084228515625,800.6226806640625,816.7399291992188,737.3626098632812,1736991215646292.0
725.2747192382812,809.4871826171875,821.1721801757812,763.1502075195312,1736991215688060.0
732.5274658203125,780.4761962890625,809.89013671875,763.1502075195312,1736991215688101.0
732.12451171875,776.0439453125,771.6116943359375,775.6410522460938,1736991215688109.0
743.4066162109375,785.7142944335938,785.3113403320312,746.2271118164062,1736991215688125.0
781.2820434570312,802.2344360351562,781.6849975585938,773.2234497070312,1736991215688131.0
732.12451171875,779.2673950195312,769.5970458984375,756.7033081054688,1736991215688115.0
808.2783813476562,798.2051391601562,788.937744140625,792.1611938476562,1736991215688137.0
799.010986328125,793.3699340820312,781.2820434570312,800.2197875976562,1736991215688149.0
819.96337890625,796.996337890625,785.3113403320312,813.91943359375,1736991215688143.0
800.2197875976562,797.8021850585938,797.3992919921875,793.7728881835938,1736991215688157.0
829.2307739257812,809.89013671875,806.6666870117188,818.7545776367188,1736991215688163.0
843.3333129882812,796.5933837890625,796.1904907226562,815.93408203125,1736991215688171.0
848.5714111328125,796.1904907226562,790.5494384765625,823.5897216796875,1736991215731088.0
850.5860595703125,817.94873046875,792.1611938476562,835.2747192382812,1736991215731133.0
852.1978149414062,834.06591796875,772.4176025390625,850.5860595703125,1736991215731143.0
869.5238037109375,811.5018310546875,763.5531005859375,850.1831665039062,1736991215731154.0
876.7765502929688,799.8168334960938,794.981689453125,858.6447143554688,1736991215731159.0
846.959716796875,797.3992919921875,788.937744140625,850.5860595703125,1736991215731164.0
818.3516235351562,801.8314819335938,769.5970458984375,828.8278198242188,1736991215731169.0
837.2893676757812,812.3076782226562,778.05859375,841.7216186523438,1736991215731175.0
857.4359130859375,812.7106323242188,787.7289428710938,864.6886596679688,1736991215731187.0
850.989013671875,830.03662109375,794.981689453125,845.3479614257812,1736991215731138.0
851.7948608398438,824.7985229492188,801.4285888671875,862.6740112304688,1736991215731198.0
848.5714111328125,813.5164794921875,786.923095703125,835.2747192382812,1736991215731126.0
844.1392211914062,818.3516235351562,796.5933837890625,861.4652099609375,1736991215773278.0
846.959716796875,812.3076782226562,783.6996459960938,875.5677490234375,1736991215773304.0
846.5567626953125,816.3369750976562,770.4029541015625,875.1648559570312,1736991215773316.0
834.4688720703125,802.6373901367188,767.5823974609375,857.032958984375,1736991215773333.0
838.4981689453125,813.91943359375,776.8497924804688,861.4652099609375,1736991215773347.0
843.7362670898438,821.97802734375,786.923095703125,841.3186645507812,1736991215773363.0
850.989013671875,814.7252807617188,796.5933837890625,816.7399291992188,1736991215773377.0
860.2564086914062,817.94873046875,792.5640869140625,825.2014770507812,1736991215773391.0
850.1831665039062,809.4871826171875,791.7582397460938,823.1868286132812,1736991215773405.0
853.003662109375,803.4432373046875,811.90478515625,832.05126953125,1736991215773435.0
869.5238037109375,818.3516235351562,819.96337890625,832.4542236328125,1736991215773446.0
856.6300659179688,816.3369750976562,794.981689453125,817.94873046875,1736991215773459.0
853.003662109375,824.7985229492188,781.6849975585938,827.6190185546875,1736991215836034.0
856.2271118164062,826.4102783203125,786.5201416015625,836.08056640625,1736991215836072.0
851.3919677734375,805.054931640625,791.7582397460938,833.2600708007812,1736991215836671.0
849.7802124023438,807.87548828125,793.7728881835938,838.901123046875,1736991215836682.0
841.3186645507812,815.5311279296875,792.1611938476562,842.930419921875,1736991215836688.0
813.113525390625,804.2490844726562,764.3589477539062,825.6043701171875,1736991215836702.0
801.025634765625,797.3992919921875,770.8058471679688,817.5457763671875,1736991215836707.0
821.97802734375,788.937744140625,814.3223266601562,830.8424682617188,1736991215836713.0
821.97802734375,794.5787353515625,819.1575317382812,836.4835205078125,1736991215836718.0
818.3516235351562,802.6373901367188,795.7875366210938,833.2600708007812,1736991215836723.0
803.4432373046875,794.1758422851562,782.4908447265625,804.6520385742188,1736991215836734.0
838.901123046875,811.098876953125,787.7289428710938,842.5274658203125,1736991215836693.0
792.5640869140625,802.6373901367188,786.923095703125,794.981689453125,1736991215878039.0
801.025634765625,809.4871826171875,800.6226806640625,807.87548828125,1736991215878078.0
799.4139404296875,797.8021850585938,794.5787353515625,796.5933837890625,1736991215878084.0
804.6520385742188,785.7142944335938,783.2966918945312,798.6080322265625,1736991215878102.0
853.003662109375,796.1904907226562,803.8461303710938,837.2893676757812,1736991215878107.0
861.8681030273438,810.6959838867188,808.6813354492188,835.2747192382812,1736991215878113.0
809.89013671875,807.87548828125,788.1318969726562,803.8461303710938,1736991215878118.0
788.1318969726562,791.3552856445312,783.6996459960938,803.4432373046875,1736991215878123.0
801.4285888671875,784.1025390625,781.6849975585938,811.90478515625,1736991215878129.0
809.89013671875,805.8607788085938,779.2673950195312,816.7399291992188,1736991215878134.0
837.2893676757812,824.7985229492188,802.2344360351562,829.6337280273438,1736991215878141.0
846.5567626953125,813.91943359375,810.6959838867188,830.03662109375,1736991215878154.0
811.098876953125,802.2344360351562,799.8168334960938,818.7545776367188,1736991215920037.0
794.5787353515625,803.8461303710938,794.981689453125,816.3369750976562,1736991215920095.0
807.87548828125,799.4139404296875,780.0732421875,816.3369750976562,1736991215920114.0
796.5933837890625,778.4615478515625,773.6264038085938,810.2930297851562,1736991215920128.0
829.6337280273438,776.0439453125,804.6520385742188,832.4542236328125,1736991215921372.0
839.3040161132812,822.3809814453125,809.4871826171875,851.7948608398438,1736991215921450.0
793.3699340820312,824.3956298828125,758.7179565429688,821.97802734375,1736991215921462.0
794.981689453125,814.7252807617188,763.9560546875,820.7692260742188,1736991215921470.0
822.3809814453125,826.8131713867188,828.8278198242188,844.945068359375,1736991215921479.0
819.1575317382812,797.8021850585938,836.08056640625,820.3662719726562,1736991215921500.0
806.2637329101562,784.1025390625,809.4871826171875,803.8461303710938,1736991215921510.0
796.5933837890625,795.3846435546875,804.6520385742188,813.5164794921875,1736991215921517.0
796.5933837890625,800.2197875976562,798.2051391601562,823.5897216796875,1736991215985061.0
827.2161254882812,815.1282348632812,788.937744140625,839.7069702148438,1736991215985097.0
844.945068359375,817.1428833007812,805.4578857421875,851.7948608398438,1736991215985104.0
839.7069702148438,802.2344360351562,810.6959838867188,836.4835205078125,1736991215985110.0
845.3479614257812,807.87548828125,797.8021850585938,828.8278198242188,1736991215985115.0
851.3919677734375,803.4432373046875,804.2490844726562,832.4542236328125,1736991215985121.0
829.2307739257812,808.6813354492188,801.4285888671875,831.6483764648438,1736991215985126.0
800.6226806640625,809.084228515625,790.5494384765625,819.5604248046875,1736991215985131.0
788.937744140625,791.7582397460938,792.967041015625,796.996337890625,1736991215985137.0
797.8021850585938,799.010986328125,785.3113403320312,803.8461303710938,1736991215985144.0
813.91943359375,801.8314819335938,786.923095703125,815.93408203125,1736991215985149.0
836.4835205078125,801.4285888671875,810.6959838867188,823.1868286132812,1736991215985154.0
858.2417602539062,799.8168334960938,834.4688720703125,838.09521484375,1736991216027096.0
815.5311279296875,796.5933837890625,807.069580078125,824.7985229492188,1736991216027135.0
778.4615478515625,800.2197875976562,774.4322509765625,805.8607788085938,1736991216027143.0
785.7142944335938,794.5787353515625,780.4761962890625,797.8021850585938,1736991216027148.0
780.4761962890625,794.981689453125,786.1171875,790.5494384765625,1736991216027154.0
794.1758422851562,809.89013671875,786.5201416015625,792.5640869140625,1736991216027159.0
815.5311279296875,814.3223266601562,788.937744140625,796.996337890625,1736991216028012.0
818.3516235351562,810.6959838867188,801.8314819335938,818.3516235351562,1736991216028030.0
788.5347900390625,801.8314819335938,783.6996459960938,803.4432373046875,1736991216028036.0
784.5054931640625,787.7289428710938,794.1758422851562,793.7728881835938,1736991216028041.0
796.5933837890625,785.7142944335938,801.8314819335938,801.8314819335938,1736991216028046.0
827.2161254882812,809.89013671875,804.2490844726562,812.3076782226562,1736991216028025.0
805.4578857421875,796.996337890625,796.1904907226562,812.3076782226562,1736991216070019.0
813.113525390625,806.2637329101562,796.996337890625,811.098876953125,1736991216070055.0
821.1721801757812,819.1575317382812,796.1904907226562,816.7399291992188,1736991216070062.0
826.8131713867188,817.94873046875,805.4578857421875,823.1868286132812,1736991216070069.0
814.3223266601562,804.6520385742188,798.6080322265625,816.3369750976562,1736991216070074.0
788.1318969726562,799.8168334960938,782.893798828125,801.025634765625,1736991216070080.0
787.7289428710938,776.8497924804688,788.5347900390625,796.5933837890625,1736991216070085.0
810.6959838867188,780.4761962890625,795.3846435546875,811.90478515625,1736991216070090.0
819.1575317382812,814.7252807617188,801.4285888671875,822.7838745117188,1736991216070095.0
820.7692260742188,825.6043701171875,795.7875366210938,823.1868286132812,1736991216070100.0
815.1282348632812,809.4871826171875,780.0732421875,806.6666870117188,1736991216070105.0
816.7399291992188,799.4139404296875,786.1171875,808.6813354492188,1736991216070110.0
815.1282348632812,799.4139404296875,790.1465454101562,809.084228515625,1736991216113037.0
813.5164794921875,808.6813354492188,788.5347900390625,810.6959838867188,1736991216113085.0
808.6813354492188,792.967041015625,794.981689453125,817.5457763671875,1736991216113093.0
794.5787353515625,793.3699340820312,799.8168334960938,819.1575317382812,1736991216113098.0
794.5787353515625,805.4578857421875,810.6959838867188,815.93408203125,1736991216113104.0
810.6959838867188,808.2783813476562,818.3516235351562,802.6373901367188,1736991216113109.0
832.05126953125,820.7692260742188,810.2930297851562,807.4725341796875,1736991216113115.0
844.1392211914062,820.7692260742188,799.8168334960938,818.3516235351562,1736991216113120.0
821.97802734375,810.2930297851562,805.4578857421875,809.4871826171875,1736991216113790.0
797.8021850585938,792.1611938476562,796.5933837890625,801.025634765625,1736991216113803.0
787.7289428710938,765.5677490234375,770.8058471679688,801.4285888671875,1736991216113808.0
801.4285888671875,784.908447265625,789.3406372070312,816.3369750976562,1736991216113814.0
801.4285888671875,814.7252807617188,801.025634765625,815.5311279296875,1736991216156049.0
788.937744140625,796.1904907226562,796.1904907226562,796.5933837890625,1736991216156126.0
797.8021850585938,793.3699340820312,780.0732421875,807.87548828125,1736991216156137.0
789.3406372070312,792.1611938476562,802.2344360351562,800.6226806640625,1736991216156110.0
786.1171875,796.1904907226562,797.3992919921875,800.6226806640625,1736991216156095.0
810.6959838867188,803.4432373046875,786.5201416015625,816.3369750976562,1736991216156150.0
815.93408203125,813.91943359375,809.084228515625,803.8461303710938,1736991216156200.0
799.8168334960938,800.2197875976562,799.4139404296875,799.010986328125,1736991216156214.0
811.90478515625,801.8314819335938,806.2637329101562,811.90478515625,1736991216156226.0
811.90478515625,800.6226806640625,812.3076782226562,796.996337890625,1736991216156238.0
789.3406372070312,796.5933837890625,803.8461303710938,780.879150390625,1736991216156253.0
804.6520385742188,805.054931640625,803.4432373046875,797.3992919921875,1736991216156265.0
830.03662109375,794.981689453125,807.069580078125,815.93408203125,1736991216220038.0
847.3626098632812,794.981689453125,793.7728881835938,832.05126953125,1736991216220074.0
813.113525390625,792.5640869140625,784.5054931640625,819.96337890625,1736991216220081.0
774.4322509765625,786.5201416015625,796.1904907226562,805.4578857421875,1736991216220087.0
761.5384521484375,775.6410522460938,809.084228515625,794.5787353515625,1736991216220092.0
766.3735961914062,776.4468994140625,819.1575317382812,794.981689453125,1736991216220110.0
770.0,773.6264038085938,808.2783813476562,792.1611938476562,1736991216220116.0
775.2380981445312,773.2234497070312,808.2783813476562,794.1758422851562,1736991216220123.0
795.7875366210938,767.9853515625,813.113525390625,809.4871826171875,1736991216220128.0
788.937744140625,772.4176025390625,808.2783813476562,811.5018310546875,1736991216220134.0
782.893798828125,794.5787353515625,819.1575317382812,824.7985229492188,1736991216220958.0
786.5201416015625,792.967041015625,817.5457763671875,831.2454223632812,1736991216220983.0
788.5347900390625,759.120849609375,802.2344360351562,821.5750732421875,1736991216264018.0
772.8204956054688,791.3552856445312,786.5201416015625,792.5640869140625,1736991216264067.0
799.8168334960938,813.5164794921875,802.2344360351562,821.1721801757812,1736991216264082.0
820.7692260742188,809.4871826171875,812.3076782226562,833.2600708007812,1736991216264089.0
819.1575317382812,790.952392578125,807.87548828125,821.1721801757812,1736991216264094.0
790.1465454101562,778.8644409179688,808.2783813476562,799.4139404296875,1736991216264099.0
783.2966918945312,775.2380981445312,802.2344360351562,805.054931640625,1736991216264105.0
802.6373901367188,788.5347900390625,792.1611938476562,822.7838745117188,1736991216264113.0
811.5018310546875,793.7728881835938,793.7728881835938,823.5897216796875,1736991216264126.0
815.93408203125,796.996337890625,808.6813354492188,826.8131713867188,1736991216264136.0
797.3992919921875,759.5238037109375,810.2930297851562,804.6520385742188,1736991216264054.0
780.879150390625,779.6703491210938,802.6373901367188,788.937744140625,1736991216264061.0
813.113525390625,809.89013671875,815.5311279296875,832.05126953125,1736991216307053.0
803.4432373046875,816.3369750976562,806.2637329101562,827.2161254882812,1736991216307091.0
802.6373901367188,778.8644409179688,786.923095703125,819.5604248046875,1736991216307117.0
803.040283203125,782.087890625,780.4761962890625,817.5457763671875,1736991216307128.0
804.2490844726562,795.3846435546875,802.2344360351562,819.1575317382812,1736991216307107.0
819.1575317382812,794.1758422851562,801.8314819335938,823.1868286132812,1736991216307155.0
828.02197265625,816.7399291992188,824.3956298828125,829.2307739257812,1736991216307176.0
799.4139404296875,803.4432373046875,813.113525390625,802.6373901367188,1736991216307186.0
775.6410522460938,780.0732421875,790.5494384765625,783.6996459960938,1736991216307197.0
786.923095703125,784.1025390625,787.7289428710938,796.5933837890625,1736991216307206.0
807.87548828125,794.981689453125,792.967041015625,809.4871826171875,1736991216307216.0
817.94873046875,799.010986328125,798.2051391601562,826.00732421875,1736991216307226.0
814.3223266601562,800.6226806640625,803.040283203125,819.96337890625,1736991216349998.0
809.4871826171875,803.040283203125,798.6080322265625,801.8314819335938,1736991216350033.0
811.098876953125,796.5933837890625,807.87548828125,807.87548828125,1736991216350040.0
808.2783813476562,788.1318969726562,814.3223266601562,814.7252807617188,1736991216350046.0
824.3956298828125,803.4432373046875,820.3662719726562,835.2747192382812,1736991216350051.0
833.2600708007812,811.5018310546875,820.3662719726562,832.8571166992188,1736991216350060.0
807.87548828125,790.1465454101562,782.4908447265625,796.996337890625,1736991216350065.0
799.010986328125,790.1465454101562,768.7911987304688,786.5201416015625,1736991216350070.0
794.981689453125,797.8021850585938,778.8644409179688,794.5787353515625,1736991216350076.0
796.5933837890625,806.6666870117188,802.6373901367188,805.4578857421875,1736991216350081.0
806.6666870117188,814.3223266601562,820.7692260742188,810.2930297851562,1736991216350087.0
804.2490844726562,808.6813354492188,804.6520385742188,803.040283203125,1736991216350092.0
793.7728881835938,793.7728881835938,791.3552856445312,794.5787353515625,1736991216392145.0
790.1465454101562,786.923095703125,787.7289428710938,798.6080322265625,1736991216392165.0
806.6666870117188,790.1465454101562,794.5787353515625,813.5164794921875,1736991216392173.0
832.8571166992188,804.6520385742188,813.5164794921875,825.2014770507812,1736991216392186.0
836.886474609375,803.4432373046875,818.3516235351562,833.2600708007812,1736991216392179.0
784.5054931640625,782.893798828125,791.3552856445312,795.7875366210938,1736991216392196.0
771.2088012695312,774.029296875,784.5054931640625,784.5054931640625,1736991216392207.0
787.7289428710938,791.3552856445312,787.3259887695312,800.6226806640625,1736991216392217.0
799.8168334960938,797.3992919921875,795.7875366210938,819.5604248046875,1736991216392225.0
801.025634765625,802.6373901367188,807.87548828125,819.1575317382812,1736991216392232.0
787.7289428710938,805.054931640625,799.010986328125,799.8168334960938,1736991216392239.0
782.893798828125,802.6373901367188,789.3406372070312,790.5494384765625,1736991216392246.0
789.3406372070312,805.8607788085938,798.6080322265625,799.010986328125,1736991216433139.0
795.7875366210938,789.7435913085938,797.3992919921875,805.8607788085938,1736991216433188.0
812.7106323242188,801.8314819335938,796.996337890625,811.5018310546875,1736991216433922.0
793.3699340820312,792.967041015625,792.5640869140625,789.3406372070312,1736991216433938.0
782.893798828125,790.5494384765625,776.4468994140625,769.5970458984375,1736991216433949.0
798.2051391601562,794.1758422851562,794.1758422851562,788.1318969726562,1736991216433961.0
798.2051391601562,786.1171875,814.7252807617188,799.4139404296875,1736991216433974.0
793.3699340820312,792.1611938476562,805.4578857421875,799.010986328125,1736991216434074.0
792.967041015625,810.2930297851562,793.7728881835938,792.967041015625,1736991216434108.0
790.1465454101562,796.5933837890625,789.7435913085938,787.7289428710938,1736991216434118.0
792.967041015625,784.1025390625,792.5640869140625,789.3406372070312,1736991216434129.0
809.4871826171875,787.7289428710938,787.3259887695312,809.89013671875,1736991216433903.0
798.2051391601562,792.5640869140625,796.996337890625,781.2820434570312,1736991216477049.0
807.069580078125,806.2637329101562,789.3406372070312,817.1428833007812,1736991216477093.0
802.6373901367188,802.6373901367188,796.1904907226562,803.8461303710938,1736991216477101.0
775.2380981445312,794.5787353515625,807.87548828125,771.2088012695312,1736991216477106.0
761.1355590820312,796.996337890625,803.4432373046875,760.3296508789062,1736991216477114.0
785.3113403320312,795.3846435546875,797.8021850585938,781.6849975585938,1736991216477120.0
797.8021850585938,791.7582397460938,792.5640869140625,783.2966918945312,1736991216477125.0
789.3406372070312,790.5494384765625,805.8607788085938,805.054931640625,1736991216477136.0
805.4578857421875,794.981689453125,800.6226806640625,792.967041015625,1736991216477130.0
795.3846435546875,800.2197875976562,804.6520385742188,811.90478515625,1736991216477155.0
776.4468994140625,793.3699340820312,805.054931640625,804.6520385742188,1736991216477143.0
807.87548828125,797.8021850585938,801.8314819335938,801.4285888671875,1736991216477086.0
799.010986328125,792.1611938476562,785.3113403320312,810.2930297851562,1736991216520069.0
780.0732421875,776.8497924804688,788.5347900390625,799.8168334960938,1736991216520081.0
783.6996459960938,770.4029541015625,809.084228515625,804.6520385742188,1736991216520087.0
822.3809814453125,791.3552856445312,811.5018310546875,837.6923217773438,1736991216520092.0
824.7985229492188,799.8168334960938,815.1282348632812,834.4688720703125,1736991216520793.0
778.8644409179688,788.937744140625,794.981689453125,790.5494384765625,1736991216520815.0
775.6410522460938,799.4139404296875,789.3406372070312,781.2820434570312,1736991216520828.0
793.7728881835938,801.025634765625,798.2051391601562,792.967041015625,1736991216520840.0
796.5933837890625,791.3552856445312,787.3259887695312,792.5640869140625,1736991216520852.0
823.5897216796875,805.8607788085938,789.3406372070312,816.3369750976562,1736991216520875.0
803.8461303710938,800.2197875976562,786.5201416015625,798.6080322265625,1736991216520864.0
846.5567626953125,799.010986328125,796.1904907226562,828.8278198242188,1736991216520887.0
836.08056640625,784.908447265625,814.7252807617188,819.96337890625,1736991216583373.0
796.5933837890625,791.7582397460938,806.6666870117188,800.6226806640625,1736991216583409.0
776.4468994140625,813.5164794921875,780.4761962890625,794.5787353515625,1736991216583416.0
780.4761962890625,811.5018310546875,786.1171875,796.5933837890625,1736991216583422.0
782.4908447265625,806.2637329101562,806.6666870117188,794.981689453125,1736991216583427.0
777.2527465820312,809.084228515625,801.4285888671875,791.7582397460938,1736991216583432.0
792.1611938476562,806.2637329101562,811.90478515625,799.010986328125,1736991216583441.0
806.2637329101562,802.2344360351562,816.7399291992188,807.4725341796875,1736991216583446.0
821.97802734375,805.8607788085938,813.113525390625,826.4102783203125,1736991216583451.0
816.7399291992188,790.952392578125,807.4725341796875,824.3956298828125,1736991216583458.0
793.3699340820312,774.029296875,796.5933837890625,794.1758422851562,1736991216583464.0
801.025634765625,798.2051391601562,800.2197875976562,795.7875366210938,1736991216583469.0
811.90478515625,815.1282348632812,796.996337890625,805.8607788085938,1736991216625470.0
809.4871826171875,804.2490844726562,785.7142944335938,802.2344360351562,1736991216625483.0
816.3369750976562,796.996337890625,792.967041015625,803.8461303710938,1736991216625488.0
816.7399291992188,800.6226806640625,807.87548828125,808.2783813476562,1736991216625494.0
817.1428833007812,807.069580078125,811.5018310546875,811.5018310546875,1736991216625499.0
819.5604248046875,813.5164794921875,810.2930297851562,811.098876953125,1736991216625504.0
802.2344360351562,792.1611938476562,778.4615478515625,809.4871826171875,1736991216626162.0
790.952392578125,784.908447265625,786.923095703125,799.4139404296875,1736991216626175.0
813.113525390625,805.4578857421875,799.4139404296875,811.5018310546875,1736991216626141.0
791.7582397460938,780.4761962890625,807.87548828125,801.025634765625,1736991216626184.0
796.5933837890625,782.893798828125,815.1282348632812,809.084228515625,1736991216626194.0
799.4139404296875,788.5347900390625,810.2930297851562,807.069580078125,1736991216626202.0
799.4139404296875,798.6080322265625,797.8021850585938,803.040283203125,1736991216690399.0
809.4871826171875,808.2783813476562,794.981689453125,803.040283203125,1736991216690436.0
806.2637329101562,816.3369750976562,802.6373901367188,803.040283203125,1736991216690443.0
807.87548828125,812.3076782226562,799.4139404296875,801.4285888671875,1736991216690449.0
811.90478515625,805.4578857421875,794.5787353515625,798.6080322265625,1736991216690455.0
816.7399291992188,806.2637329101562,795.3846435546875,799.8168334960938,1736991216690460.0
829.2307739257812,799.010986328125,785.7142944335938,811.098876953125,1736991216690466.0
832.4542236328125,781.2820434570312,780.879150390625,813.5164794921875,1736991216690471.0
829.2307739257812,784.1025390625,797.3992919921875,811.90478515625,1736991216690477.0
830.03662109375,808.6813354492188,805.8607788085938,817.94873046875,1736991216690483.0
815.1282348632812,804.2490844726562,793.3699340820312,813.113525390625,1736991216690489.0
794.1758422851562,797.3992919921875,795.7875366210938,790.1465454101562,1736991216690494.0
780.0732421875,795.7875366210938,790.952392578125,775.2380981445312,1736991216732416.0
783.2966918945312,795.3846435546875,794.981689453125,791.7582397460938,1736991216732452.0
810.6959838867188,800.2197875976562,812.3076782226562,815.1282348632812,1736991216732459.0
813.113525390625,794.5787353515625,794.5787353515625,811.098876953125,1736991216732465.0
802.2344360351562,783.6996459960938,763.5531005859375,799.010986328125,1736991216732471.0
799.8168334960938,796.996337890625,776.0439453125,795.3846435546875,1736991216732476.0
807.87548828125,808.6813354492188,810.2930297851562,802.6373901367188,1736991216732482.0
825.6043701171875,804.6520385742188,809.89013671875,811.5018310546875,1736991216732489.0
828.8278198242188,792.967041015625,802.2344360351562,809.89013671875,1736991216733104.0
824.7985229492188,794.1758422851562,806.6666870117188,817.1428833007812,1736991216733118.0
811.90478515625,796.996337890625,797.8021850585938,816.3369750976562,1736991216733124.0
798.2051391601562,799.8168334960938,788.937744140625,807.069580078125,1736991216733131.0
805.054931640625,808.6813354492188,794.1758422851562,813.5164794921875,1736991216775447.0
804.2490844726562,794.5787353515625,790.952392578125,799.010986328125,1736991216775498.0
805.4578857421875,804.2490844726562,805.4578857421875,814.7252807617188,1736991216775486.0
818.7545776367188,807.87548828125,799.8168334960938,814.7252807617188,1736991216775503.0
828.02197265625,797.3992919921875,805.4578857421875,829.2307739257812,1736991216775509.0
821.5750732421875,802.2344360351562,796.5933837890625,819.96337890625,1736991216775514.0
801.8314819335938,804.2490844726562,794.5787353515625,800.6226806640625,1736991216775519.0
790.952392578125,793.7728881835938,793.3699340820312,794.1758422851562,1736991216775525.0
797.3992919921875,787.3259887695312,795.7875366210938,794.1758422851562,1736991216775530.0
801.025634765625,792.1611938476562,801.8314819335938,800.2197875976562,1736991216775536.0
806.6666870117188,796.5933837890625,794.981689453125,808.2783813476562,1736991216775542.0
796.996337890625,782.087890625,800.6226806640625,801.4285888671875,1736991216775493.0
808.6813354492188,794.981689453125,793.3699340820312,816.7399291992188,1736991216818434.0
809.89013671875,797.3992919921875,806.2637329101562,821.1721801757812,1736991216818470.0
815.1282348632812,803.8461303710938,810.6959838867188,820.7692260742188,1736991216818481.0
808.2783813476562,802.6373901367188,807.069580078125,816.3369750976562,1736991216818487.0
807.069580078125,814.3223266601562,802.6373901367188,816.3369750976562,1736991216818492.0
809.4871826171875,808.6813354492188,799.4139404296875,821.5750732421875,1736991216818497.0
804.6520385742188,785.7142944335938,792.1611938476562,811.90478515625,1736991216818503.0
794.1758422851562,784.908447265625,778.8644409179688,794.981689453125,1736991216818510.0
789.3406372070312,787.3259887695312,777.6557006835938,790.1465454101562,1736991216818515.0
800.6226806640625,780.879150390625,782.893798828125,793.7728881835938,1736991216818520.0
815.1282348632812,783.2966918945312,781.2820434570312,794.5787353515625,1736991216819174.0
843.3333129882812,809.89013671875,795.7875366210938,812.7106323242188,1736991216819192.0
838.09521484375,811.5018310546875,797.3992919921875,826.8131713867188,1736991216860459.0
789.3406372070312,802.6373901367188,791.3552856445312,812.3076782226562,1736991216860500.0
786.1171875,799.4139404296875,806.2637329101562,809.084228515625,1736991216860508.0
784.908447265625,798.2051391601562,804.6520385742188,794.981689453125,1736991216860513.0
780.4761962890625,790.952392578125,794.5787353515625,786.923095703125,1736991216860519.0
794.981689453125,794.981689453125,799.8168334960938,801.025634765625,1736991216860524.0
812.7106323242188,803.8461303710938,793.3699340820312,818.3516235351562,1736991216860529.0
817.5457763671875,807.4725341796875,800.2197875976562,818.3516235351562,1736991216860535.0
808.6813354492188,804.2490844726562,804.2490844726562,807.87548828125,1736991216860540.0
805.054931640625,792.1611938476562,792.1611938476562,795.7875366210938,1736991216860545.0
803.8461303710938,788.1318969726562,793.7728881835938,798.6080322265625,1736991216860552.0
823.1868286132812,805.8607788085938,809.89013671875,828.8278198242188,1736991216860558.0
829.6337280273438,804.6520385742188,801.4285888671875,831.6483764648438,1736991216903435.0
801.4285888671875,791.7582397460938,789.7435913085938,799.8168334960938,1736991216903450.0
775.2380981445312,788.5347900390625,786.1171875,777.6557006835938,1736991216903456.0
791.7582397460938,790.952392578125,784.908447265625,792.1611938476562,1736991216903461.0
817.94873046875,797.8021850585938,791.7582397460938,822.3809814453125,1736991216903467.0
812.3076782226562,801.4285888671875,811.90478515625,822.7838745117188,1736991216903472.0
815.93408203125,797.3992919921875,805.054931640625,816.7399291992188,1736991216903483.0
807.4725341796875,794.5787353515625,812.3076782226562,812.3076782226562,1736991216903477.0
816.7399291992188,807.87548828125,806.2637329101562,812.7106323242188,1736991216903495.0
805.4578857421875,801.025634765625,804.2490844726562,807.4725341796875,1736991216903509.0
794.981689453125,790.5494384765625,799.4139404296875,798.6080322265625,1736991216903520.0
780.4761962890625,791.3552856445312,786.923095703125,787.7289428710938,1736991216903531.0
779.2673950195312,799.8168334960938,783.6996459960938,786.5201416015625,1736991216946489.0
796.1904907226562,796.996337890625,790.952392578125,799.010986328125,1736991216946502.0
816.3369750976562,787.7289428710938,800.2197875976562,820.7692260742188,1736991216946507.0
820.7692260742188,797.8021850585938,796.5933837890625,817.5457763671875,1736991216946516.0
811.5018310546875,809.89013671875,800.2197875976562,814.3223266601562,1736991216946523.0
811.5018310546875,804.2490844726562,809.4871826171875,818.7545776367188,1736991216946529.0
808.6813354492188,791.3552856445312,800.6226806640625,809.4871826171875,1736991216946540.0
802.2344360351562,794.981689453125,800.6226806640625,800.6226806640625,1736991216946550.0
789.7435913085938,794.1758422851562,793.3699340820312,794.981689453125,1736991216946559.0
783.6996459960938,780.0732421875,780.0732421875,793.3699340820312,1736991216946566.0
786.1171875,793.3699340820312,782.087890625,788.5347900390625,1736991216946575.0
796.5933837890625,810.6959838867188,773.2234497070312,803.040283203125,1736991216946586.0
798.2051391601562,794.981689453125,774.029296875,802.2344360351562,1736991217010382.0
796.5933837890625,800.2197875976562,803.040283203125,790.1465454101562,1736991217010421.0
805.4578857421875,807.069580078125,811.90478515625,799.010986328125,1736991217010437.0
818.3516235351562,810.2930297851562,807.87548828125,805.4578857421875,1736991217010447.0
812.7106323242188,807.4725341796875,798.6080322265625,804.2490844726562,1736991217010458.0
795.3846435546875,793.3699340820312,795.7875366210938,802.2344360351562,1736991217010468.0
791.3552856445312,792.967041015625,797.3992919921875,796.5933837890625,1736991217010477.0
801.4285888671875,801.8314819335938,803.4432373046875,804.6520385742188,1736991217010487.0
806.6666870117188,802.2344360351562,797.3992919921875,807.069580078125,1736991217010497.0
802.6373901367188,798.6080322265625,785.7142944335938,798.6080322265625,1736991217010508.0
802.2344360351562,792.1611938476562,800.6226806640625,803.8461303710938,1736991217010521.0
802.6373901367188,796.1904907226562,809.4871826171875,807.4725341796875,1736991217010576.0
794.5787353515625,807.069580078125,800.6226806640625,809.084228515625,1736991217053430.0
800.2197875976562,807.4725341796875,794.1758422851562,805.8607788085938,1736991217053487.0
805.054931640625,808.6813354492188,794.981689453125,800.2197875976562,1736991217054761.0
817.94873046875,814.3223266601562,799.010986328125,813.5164794921875,1736991217054791.0
830.8424682617188,814.3223266601562,806.2637329101562,822.7838745117188,1736991217054851.0
829.2307739257812,809.4871826171875,801.8314819335938,821.1721801757812,1736991217054869.0
841.7216186523438,781.6849975585938,806.2637329101562,829.6337280273438,1736991217054891.0
834.4688720703125,790.952392578125,810.6959838867188,822.7838745117188,1736991217054924.0
834.06591796875,797.8021850585938,789.3406372070312,822.3809814453125,1736991217054880.0
817.94873046875,811.90478515625,783.6996459960938,815.1282348632812,1736991217054946.0
811.90478515625,815.5311279296875,786.1171875,819.96337890625,1736991217054974.0
790.952392578125,810.2930297851562,793.3699340820312,807.87548828125,1736991217055001.0
786.1171875,794.5787353515625,805.4578857421875,794.5787353515625,1736991217096462.0
799.4139404296875,792.5640869140625,799.010986328125,791.3552856445312,1736991217096516.0
821.5750732421875,801.4285888671875,792.967041015625,811.90478515625,1736991217096526.0
842.12451171875,806.6666870117188,802.2344360351562,830.4395751953125,1736991217096536.0
793.7728881835938,782.4908447265625,811.098876953125,790.1465454101562,1736991217096501.0
812.3076782226562,807.069580078125,797.8021850585938,806.6666870117188,1736991217096546.0
799.8168334960938,814.7252807617188,806.6666870117188,809.89013671875,1736991217096555.0
798.6080322265625,809.084228515625,804.6520385742188,810.2930297851562,1736991217096564.0
781.2820434570312,798.2051391601562,789.3406372070312,787.7289428710938,1736991217096575.0
776.0439453125,785.7142944335938,784.908447265625,784.5054931640625,1736991217096585.0
788.1318969726562,790.952392578125,779.2673950195312,794.1758422851562,1736991217096595.0
809.084228515625,801.8314819335938,784.908447265625,805.4578857421875,1736991217096605.0
819.5604248046875,797.3992919921875,807.4725341796875,809.4871826171875,1736991217138409.0
821.5750732421875,806.2637329101562,805.054931640625,809.084228515625,1736991217138453.0
816.3369750976562,800.6226806640625,811.5018310546875,804.6520385742188,1736991217138445.0
831.6483764648438,805.8607788085938,812.7106323242188,829.2307739257812,1736991217138459.0
811.5018310546875,806.2637329101562,815.1282348632812,826.8131713867188,1736991217139152.0
783.6996459960938,802.2344360351562,801.025634765625,794.5787353515625,1736991217139177.0
776.8497924804688,799.4139404296875,791.3552856445312,785.7142944335938,1736991217139219.0
782.4908447265625,796.5933837890625,785.7142944335938,792.967041015625,1736991217139235.0
805.8607788085938,798.6080322265625,794.981689453125,807.4725341796875,1736991217139247.0
816.7399291992188,803.4432373046875,796.5933837890625,818.7545776367188,1736991217139276.0
804.6520385742188,804.6520385742188,778.8644409179688,815.1282348632812,1736991217139295.0
797.8021850585938,804.2490844726562,786.1171875,805.4578857421875,1736991217139323.0
792.1611938476562,793.7728881835938,796.996337890625,796.996337890625,1736991217180995.0
799.010986328125,782.4908447265625,806.6666870117188,800.6226806640625,1736991217181010.0
815.1282348632812,791.7582397460938,810.2930297851562,813.91943359375,1736991217181018.0
806.2637329101562,802.2344360351562,793.7728881835938,805.4578857421875,1736991217181032.0
792.5640869140625,799.8168334960938,792.967041015625,794.1758422851562,1736991217181043.0
801.025634765625,799.8168334960938,798.2051391601562,804.6520385742188,1736991217181053.0
813.91943359375,793.7728881835938,796.996337890625,805.4578857421875,1736991217181066.0
801.025634765625,786.923095703125,802.6373901367188,794.981689453125,1736991217181078.0
791.3552856445312,794.981689453125,807.069580078125,791.3552856445312,1736991217181090.0
794.981689453125,799.8168334960938,805.054931640625,791.3552856445312,1736991217181102.0
795.7875366210938,801.8314819335938,790.5494384765625,788.1318969726562,1736991217181114.0
796.5933837890625,802.6373901367188,779.6703491210938,789.3406372070312,1736991217181126.0
809.89013671875,805.054931640625,780.0732421875,792.967041015625,1736991217242685.0
799.010986328125,792.5640869140625,784.5054931640625,806.2637329101562,1736991217242763.0
817.94873046875,803.8461303710938,776.8497924804688,804.2490844726562,1736991217242752.0
811.90478515625,799.8168334960938,807.87548828125,812.7106323242188,1736991217242774.0
803.040283203125,794.5787353515625,809.084228515625,803.8461303710938,1736991217242768.0
801.025634765625,798.2051391601562,784.1025390625,805.054931640625,1736991217242783.0
805.8607788085938,807.87548828125,790.952392578125,800.2197875976562,1736991217243637.0
806.2637329101562,801.8314819335938,811.098876953125,794.981689453125,1736991217243665.0
