TP9,AF7,AF8,TP10,Timestamp
779.6703491210938,793.3699340820312,772.4176025390625,785.3113403320312,1736990913237959.0
784.1025390625,783.6996459960938,771.6116943359375,780.4761962890625,1736990913238006.0
788.1318969726562,784.1025390625,784.5054931640625,784.5054931640625,1736990913238017.0
799.010986328125,789.7435913085938,791.3552856445312,790.952392578125,1736990913238025.0
802.2344360351562,792.967041015625,803.4432373046875,796.996337890625,1736990913238034.0
804.2490844726562,801.8314819335938,814.3223266601562,805.054931640625,1736990913238062.0
797.8021850585938,801.4285888671875,801.4285888671875,804.2490844726562,1736990913238082.0
797.8021850585938,799.010986328125,789.3406372070312,796.996337890625,1736990913238095.0
792.1611938476562,795.7875366210938,795.7875366210938,791.3552856445312,1736990913238108.0
785.7142944335938,792.967041015625,799.8168334960938,792.967041015625,1736990913238120.0
785.7142944335938,792.5640869140625,794.5787353515625,792.1611938476562,1736990913238134.0
780.4761962890625,786.923095703125,789.7435913085938,791.3552856445312,1736990913238150.0
792.5640869140625,788.1318969726562,788.5347900390625,799.4139404296875,1736990913281215.0
813.113525390625,792.967041015625,796.996337890625,816.3369750976562,1736990913281259.0
818.3516235351562,799.010986328125,802.2344360351562,819.5604248046875,1736990913281274.0
796.5933837890625,794.5787353515625,795.3846435546875,799.8168334960938,1736990913281284.0
798.6080322265625,788.1318969726562,793.3699340820312,802.6373901367188,1736990913281306.0
819.5604248046875,796.5933837890625,796.1904907226562,819.1575317382812,1736990913281520.0
822.7838745117188,801.025634765625,792.1611938476562,810.2930297851562,1736990913281537.0
834.8717651367188,807.069580078125,797.3992919921875,818.7545776367188,1736990913281551.0
845.3479614257812,815.5311279296875,808.6813354492188,832.8571166992188,1736990913282434.0
835.6776733398438,800.2197875976562,796.996337890625,822.3809814453125,1736990913282461.0
830.03662109375,794.981689453125,789.3406372070312,821.1721801757812,1736990913282471.0
824.7985229492188,807.069580078125,788.5347900390625,818.7545776367188,1736990913282482.0
821.97802734375,813.113525390625,788.937744140625,818.3516235351562,1736990913345950.0
814.3223266601562,801.025634765625,783.2966918945312,809.89013671875,1736990913346018.0
822.3809814453125,803.8461303710938,787.7289428710938,818.3516235351562,1736990913346027.0
835.6776733398438,800.2197875976562,790.5494384765625,825.2014770507812,1736990913346037.0
826.4102783203125,806.2637329101562,792.1611938476562,823.5897216796875,1736990913346058.0
826.4102783203125,808.2783813476562,790.1465454101562,818.3516235351562,1736990913345998.0
821.97802734375,799.8168334960938,787.3259887695312,809.4871826171875,1736990913346009.0
824.7985229492188,815.93408203125,800.2197875976562,824.7985229492188,1736990913346256.0
839.3040161132812,812.7106323242188,809.89013671875,832.8571166992188,1736990913346274.0
837.6923217773438,805.8607788085938,811.90478515625,831.6483764648438,1736990913346283.0
825.2014770507812,811.5018310546875,801.8314819335938,817.94873046875,1736990913346294.0
811.5018310546875,807.4725341796875,789.7435913085938,809.084228515625,1736990913346303.0
807.87548828125,795.3846435546875,782.4908447265625,811.90478515625,1736990913387986.0
806.6666870117188,795.3846435546875,795.3846435546875,813.5164794921875,1736990913388070.0
807.069580078125,795.7875366210938,803.8461303710938,813.5164794921875,1736990913388082.0
816.3369750976562,794.981689453125,800.2197875976562,815.1282348632812,1736990913388095.0
814.7252807617188,800.6226806640625,789.3406372070312,815.1282348632812,1736990913388105.0
813.113525390625,804.6520385742188,794.5787353515625,816.3369750976562,1736990913388116.0
812.3076782226562,790.5494384765625,786.1171875,815.1282348632812,1736990913388056.0
819.5604248046875,807.87548828125,803.040283203125,817.5457763671875,1736990913388131.0
824.3956298828125,804.2490844726562,805.054931640625,819.96337890625,1736990913388222.0
824.7985229492188,794.981689453125,806.6666870117188,826.00732421875,1736990913388255.0
822.7838745117188,788.5347900390625,800.6226806640625,825.6043701171875,1736990913389389.0
816.3369750976562,789.7435913085938,791.3552856445312,819.1575317382812,1736990913389428.0
814.7252807617188,803.040283203125,790.5494384765625,820.7692260742188,1736990913431988.0
816.3369750976562,800.2197875976562,796.996337890625,819.96337890625,1736990913432067.0
822.3809814453125,805.8607788085938,798.6080322265625,826.8131713867188,1736990913432052.0
804.2490844726562,799.4139404296875,790.952392578125,811.5018310546875,1736990913432076.0
801.025634765625,794.5787353515625,794.5787353515625,803.4432373046875,1736990913432259.0
799.8168334960938,795.3846435546875,793.7728881835938,797.3992919921875,1736990913432279.0
805.4578857421875,798.2051391601562,790.5494384765625,805.4578857421875,1736990913432324.0
816.7399291992188,798.6080322265625,804.6520385742188,819.5604248046875,1736990913432346.0
816.7399291992188,800.6226806640625,808.2783813476562,816.3369750976562,1736990913432357.0
798.6080322265625,790.952392578125,792.1611938476562,803.4432373046875,1736990913432370.0
790.952392578125,792.1611938476562,788.1318969726562,792.967041015625,1736990913432382.0
803.4432373046875,801.8314819335938,788.937744140625,794.981689453125,1736990913432395.0
806.6666870117188,792.1611938476562,791.7582397460938,799.8168334960938,1736990913474995.0
799.4139404296875,785.3113403320312,801.025634765625,793.7728881835938,1736990913475064.0
792.5640869140625,790.952392578125,796.5933837890625,789.3406372070312,1736990913475082.0
787.7289428710938,788.1318969726562,786.5201416015625,786.923095703125,1736990913475095.0
796.5933837890625,792.967041015625,792.5640869140625,789.7435913085938,1736990913475103.0
807.069580078125,803.8461303710938,796.996337890625,800.6226806640625,1736990913475110.0
810.6959838867188,809.084228515625,803.4432373046875,807.87548828125,1736990913475120.0
792.967041015625,796.1904907226562,805.054931640625,793.7728881835938,1736990913475167.0
776.0439453125,782.893798828125,794.1758422851562,780.0732421875,1736990913475190.0
787.3259887695312,794.981689453125,792.967041015625,784.1025390625,1736990913475202.0
804.6520385742188,799.010986328125,797.3992919921875,803.8461303710938,1736990913475215.0
803.4432373046875,786.923095703125,798.2051391601562,807.069580078125,1736990913475226.0
792.967041015625,786.1171875,792.5640869140625,796.1904907226562,1736990913519930.0
806.2637329101562,790.5494384765625,799.4139404296875,808.6813354492188,1736990913519989.0
789.7435913085938,794.5787353515625,793.7728881835938,798.2051391601562,1736990913519975.0
781.2820434570312,790.952392578125,796.5933837890625,784.5054931640625,1736990913519996.0
775.6410522460938,798.2051391601562,788.1318969726562,778.05859375,1736990913520007.0
795.3846435546875,796.1904907226562,782.4908447265625,802.6373901367188,1736990913520021.0
797.3992919921875,793.3699340820312,798.2051391601562,803.8461303710938,1736990913519983.0
776.4468994140625,790.5494384765625,772.0146484375,789.3406372070312,1736990913520040.0
727.2893676757812,776.0439453125,769.1941528320312,743.003662109375,1736990913520071.0
710.3662719726562,772.4176025390625,783.6996459960938,730.915771484375,1736990913520089.0
720.8424682617188,794.5787353515625,802.2344360351562,734.1392211914062,1736990913520098.0
727.2893676757812,789.7435913085938,793.7728881835938,736.5567626953125,1736990913520108.0
713.99267578125,770.4029541015625,744.6153564453125,730.5128173828125,1736990913561969.0
678.937744140625,765.970703125,807.4725341796875,687.3992919921875,1736990913561981.0
701.5018310546875,782.087890625,811.5018310546875,705.1282348632812,1736990913561987.0
731.3186645507812,796.1904907226562,817.1428833007812,734.5421142578125,1736990913561992.0
737.7655639648438,784.908447265625,803.040283203125,739.3773193359375,1736990913561998.0
735.3479614257812,772.4176025390625,782.4908447265625,738.1685180664062,1736990913562004.0
741.7948608398438,777.6557006835938,769.1941528320312,743.4066162109375,1736990913562018.0
684.981689453125,765.5677490234375,790.5494384765625,695.8607788085938,1736990913561975.0
749.4505615234375,784.908447265625,777.2527465820312,758.3150024414062,1736990913562033.0
753.8828125,781.6849975585938,789.3406372070312,765.5677490234375,1736990913562046.0
736.1538696289062,777.2527465820312,749.8534545898438,753.076904296875,1736990913561956.0
771.6116943359375,783.6996459960938,801.8314819335938,776.8497924804688,1736990913562055.0
781.2820434570312,789.3406372070312,796.5933837890625,780.879150390625,1736990913604982.0
787.3259887695312,794.5787353515625,788.1318969726562,783.6996459960938,1736990913605022.0
796.1904907226562,798.2051391601562,795.3846435546875,793.3699340820312,1736990913605895.0
789.3406372070312,793.7728881835938,791.7582397460938,786.923095703125,1736990913605917.0
781.2820434570312,792.5640869140625,787.7289428710938,780.879150390625,1736990913605927.0
779.2673950195312,786.923095703125,782.4908447265625,779.2673950195312,1736990913605937.0
788.1318969726562,780.4761962890625,784.5054931640625,790.5494384765625,1736990913605959.0
797.3992919921875,788.1318969726562,802.2344360351562,803.4432373046875,1736990913605998.0
791.7582397460938,792.5640869140625,797.3992919921875,795.3846435546875,1736990913606007.0
783.2966918945312,791.3552856445312,784.908447265625,780.4761962890625,1736990913606019.0
784.1025390625,792.5640869140625,791.3552856445312,781.6849975585938,1736990913606028.0
787.3259887695312,796.996337890625,799.4139404296875,789.3406372070312,1736990913606037.0
788.5347900390625,799.4139404296875,799.4139404296875,791.3552856445312,1736990913648965.0
810.2930297851562,799.4139404296875,800.2197875976562,809.89013671875,1736990913649042.0
795.7875366210938,786.1171875,793.3699340820312,801.4285888671875,1736990913649051.0
796.5933837890625,776.8497924804688,791.3552856445312,795.3846435546875,1736990913649060.0
802.6373901367188,785.3113403320312,794.5787353515625,803.8461303710938,1736990913649069.0
797.8021850585938,791.7582397460938,792.5640869140625,799.4139404296875,1736990913649078.0
784.908447265625,792.5640869140625,788.937744140625,788.5347900390625,1736990913649087.0
787.7289428710938,798.2051391601562,792.1611938476562,791.7582397460938,1736990913649095.0
799.4139404296875,797.8021850585938,798.2051391601562,797.3992919921875,1736990913649105.0
801.4285888671875,792.5640869140625,804.2490844726562,799.8168334960938,1736990913649113.0
799.8168334960938,797.8021850585938,805.054931640625,799.4139404296875,1736990913649121.0
804.2490844726562,802.2344360351562,802.2344360351562,799.8168334960938,1736990913649016.0
794.981689453125,792.1611938476562,795.7875366210938,794.981689453125,1736990913714240.0
795.3846435546875,788.1318969726562,790.952392578125,793.7728881835938,1736990913714349.0
807.069580078125,788.1318969726562,798.2051391601562,806.6666870117188,1736990913714380.0
806.2637329101562,785.7142944335938,792.5640869140625,806.6666870117188,1736990913714392.0
793.3699340820312,790.5494384765625,784.5054931640625,799.4139404296875,1736990913716050.0
784.5054931640625,793.3699340820312,788.1318969726562,793.7728881835938,1736990913716077.0
786.5201416015625,792.967041015625,788.937744140625,788.937744140625,1736990913716086.0
804.2490844726562,800.2197875976562,790.1465454101562,803.4432373046875,1736990913716094.0
800.6226806640625,791.7582397460938,782.087890625,801.8314819335938,1736990913716102.0
782.893798828125,781.2820434570312,782.087890625,783.2966918945312,1736990913716110.0
791.3552856445312,791.7582397460938,792.967041015625,786.5201416015625,1736990913716121.0
796.996337890625,789.7435913085938,795.3846435546875,790.5494384765625,1736990913716131.0
792.1611938476562,788.1318969726562,801.8314819335938,788.1318969726562,1736990913758991.0
780.879150390625,793.3699340820312,793.7728881835938,786.5201416015625,1736990913759086.0
781.2820434570312,790.5494384765625,796.1904907226562,786.923095703125,1736990913759096.0
792.1611938476562,792.967041015625,795.7875366210938,794.1758422851562,1736990913759106.0
801.4285888671875,796.5933837890625,794.1758422851562,801.8314819335938,1736990913759114.0
794.5787353515625,794.981689453125,796.5933837890625,797.3992919921875,1736990913759123.0
779.6703491210938,792.1611938476562,787.3259887695312,788.937744140625,1736990913759132.0
776.4468994140625,790.1465454101562,783.6996459960938,790.952392578125,1736990913759140.0
787.3259887695312,794.5787353515625,801.4285888671875,802.2344360351562,1736990913759149.0
788.1318969726562,794.1758422851562,798.2051391601562,796.1904907226562,1736990913759157.0
780.0732421875,792.1611938476562,794.5787353515625,784.1025390625,1736990913759057.0
776.8497924804688,791.7582397460938,788.1318969726562,782.087890625,1736990913759074.0
785.3113403320312,785.7142944335938,788.937744140625,794.1758422851562,1736990913802107.0
790.952392578125,781.2820434570312,782.893798828125,787.7289428710938,1736990913802167.0
807.87548828125,782.087890625,779.2673950195312,797.3992919921875,1736990913802182.0
819.96337890625,796.996337890625,795.3846435546875,832.8571166992188,1736990913802193.0
803.040283203125,806.2637329101562,816.3369750976562,824.3956298828125,1736990913802207.0
772.4176025390625,796.1904907226562,803.4432373046875,785.7142944335938,1736990913802309.0
762.7472534179688,783.2966918945312,789.7435913085938,769.1941528320312,1736990913803210.0
774.8351440429688,780.0732421875,789.3406372070312,778.8644409179688,1736990913803361.0
784.908447265625,781.2820434570312,792.967041015625,792.5640869140625,1736990913803448.0
784.1025390625,786.923095703125,798.2051391601562,797.3992919921875,1736990913803460.0
788.5347900390625,799.010986328125,797.8021850585938,799.8168334960938,1736990913803469.0
793.3699340820312,804.6520385742188,803.8461303710938,786.1171875,1736990913803478.0
794.1758422851562,802.2344360351562,803.4432373046875,779.2673950195312,1736990913845957.0
757.106201171875,778.05859375,768.7911987304688,765.1648559570312,1736990913846015.0
768.7911987304688,785.3113403320312,786.1171875,772.4176025390625,1736990913846003.0
770.0,785.3113403320312,771.2088012695312,776.8497924804688,1736990913846025.0
779.2673950195312,782.087890625,786.5201416015625,787.7289428710938,1736990913846145.0
787.3259887695312,790.952392578125,803.040283203125,793.7728881835938,1736990913846204.0
776.4468994140625,799.010986328125,805.8607788085938,789.3406372070312,1736990913846219.0
763.9560546875,790.5494384765625,792.5640869140625,778.4615478515625,1736990913846228.0
769.5970458984375,780.4761962890625,783.2966918945312,778.05859375,1736990913846237.0
775.6410522460938,785.3113403320312,782.893798828125,778.05859375,1736990913846273.0
774.8351440429688,789.3406372070312,788.1318969726562,776.4468994140625,1736990913846499.0
785.3113403320312,788.5347900390625,789.7435913085938,781.2820434570312,1736990913846513.0
794.1758422851562,793.3699340820312,790.1465454101562,788.5347900390625,1736990913888056.0
801.025634765625,804.2490844726562,793.3699340820312,794.5787353515625,1736990913888080.0
817.94873046875,816.7399291992188,806.2637329101562,813.5164794921875,1736990913888090.0
813.91943359375,805.8607788085938,810.2930297851562,810.2930297851562,1736990913888102.0
793.7728881835938,793.3699340820312,797.8021850585938,788.5347900390625,1736990913888114.0
788.5347900390625,791.3552856445312,785.3113403320312,785.3113403320312,1736990913888126.0
792.1611938476562,786.923095703125,780.0732421875,789.3406372070312,1736990913888137.0
790.952392578125,787.7289428710938,782.893798828125,788.1318969726562,1736990913888443.0
794.5787353515625,794.981689453125,788.5347900390625,788.1318969726562,1736990913889650.0
807.069580078125,796.5933837890625,796.5933837890625,795.3846435546875,1736990913889690.0
807.87548828125,796.5933837890625,797.8021850585938,803.8461303710938,1736990913889699.0
798.6080322265625,796.996337890625,796.5933837890625,805.8607788085938,1736990913889713.0
805.4578857421875,810.6959838867188,798.6080322265625,814.7252807617188,1736990913933197.0
782.087890625,790.5494384765625,787.7289428710938,787.3259887695312,1736990913933282.0
776.0439453125,791.7582397460938,792.5640869140625,783.6996459960938,1736990913933293.0
787.7289428710938,792.1611938476562,800.6226806640625,789.7435913085938,1736990913933328.0
788.5347900390625,784.5054931640625,803.040283203125,796.996337890625,1736990913933352.0
797.3992919921875,794.981689453125,803.4432373046875,802.2344360351562,1736990913933389.0
813.91943359375,809.084228515625,804.2490844726562,809.4871826171875,1736990913933407.0
803.4432373046875,807.4725341796875,789.3406372070312,807.4725341796875,1736990913933266.0
803.8461303710938,805.054931640625,792.967041015625,804.2490844726562,1736990913933419.0
792.1611938476562,788.1318969726562,785.3113403320312,793.3699340820312,1736990913933447.0
795.3846435546875,790.5494384765625,794.981689453125,793.3699340820312,1736990913933539.0
795.3846435546875,801.4285888671875,801.4285888671875,795.7875366210938,1736990913933570.0
791.7582397460938,791.3552856445312,792.1611938476562,788.5347900390625,1736990914052225.0
795.3846435546875,784.1025390625,790.952392578125,786.5201416015625,1736990914052277.0
805.054931640625,793.3699340820312,796.996337890625,800.2197875976562,1736990914052309.0
813.91943359375,796.996337890625,796.996337890625,809.89013671875,1736990914052319.0
821.1721801757812,803.040283203125,796.5933837890625,810.2930297851562,1736990914052328.0
818.3516235351562,808.6813354492188,793.3699340820312,806.2637329101562,1736990914052336.0
801.8314819335938,795.7875366210938,790.1465454101562,794.1758422851562,1736990914052344.0
798.6080322265625,790.1465454101562,791.7582397460938,784.908447265625,1736990914052352.0
810.2930297851562,786.5201416015625,786.1171875,795.7875366210938,1736990914052360.0
801.8314819335938,782.4908447265625,786.923095703125,801.025634765625,1736990914052368.0
789.7435913085938,790.952392578125,805.8607788085938,801.025634765625,1736990914053680.0
793.3699340820312,796.5933837890625,812.7106323242188,804.6520385742188,1736990914053709.0
792.967041015625,790.952392578125,794.981689453125,801.025634765625,1736990914053782.0
790.5494384765625,778.4615478515625,796.996337890625,801.025634765625,1736990914053793.0
784.908447265625,765.970703125,805.4578857421875,792.967041015625,1736990914053801.0
787.3259887695312,772.4176025390625,804.6520385742188,793.7728881835938,1736990914053810.0
796.1904907226562,791.7582397460938,807.4725341796875,808.6813354492188,1736990914053818.0
788.1318969726562,794.5787353515625,810.2930297851562,804.2490844726562,1736990914053828.0
772.4176025390625,778.8644409179688,801.8314819335938,789.7435913085938,1736990914053836.0
771.6116943359375,774.029296875,796.996337890625,786.923095703125,1736990914053844.0
782.893798828125,794.1758422851562,804.6520385742188,796.996337890625,1736990914053856.0
795.7875366210938,800.2197875976562,811.098876953125,807.87548828125,1736990914053865.0
786.923095703125,776.4468994140625,798.2051391601562,799.010986328125,1736990914053873.0
787.7289428710938,761.94140625,793.3699340820312,799.010986328125,1736990914053881.0
796.996337890625,774.029296875,801.025634765625,804.2490844726562,1736990914142555.0
786.1171875,790.5494384765625,793.7728881835938,805.054931640625,1736990914142603.0
801.025634765625,799.4139404296875,787.7289428710938,816.7399291992188,1736990914142614.0
813.91943359375,801.8314819335938,798.6080322265625,822.7838745117188,1736990914142623.0
801.025634765625,797.3992919921875,812.7106323242188,815.1282348632812,1736990914142631.0
794.1758422851562,790.5494384765625,811.90478515625,809.4871826171875,1736990914142654.0
798.2051391601562,784.908447265625,801.8314819335938,810.2930297851562,1736990914142663.0
813.113525390625,790.5494384765625,799.4139404296875,817.94873046875,1736990914142671.0
794.1758422851562,783.6996459960938,789.3406372070312,807.87548828125,1736990914142682.0
780.0732421875,778.4615478515625,786.1171875,801.8314819335938,1736990914142690.0
788.5347900390625,775.2380981445312,796.996337890625,805.054931640625,1736990914142699.0
795.3846435546875,780.4761962890625,798.6080322265625,802.6373901367188,1736990914142707.0
803.8461303710938,788.5347900390625,793.3699340820312,809.4871826171875,1736990914164331.0
802.6373901367188,792.967041015625,798.6080322265625,809.4871826171875,1736990914164382.0
801.025634765625,801.025634765625,804.2490844726562,807.069580078125,1736990914164396.0
802.6373901367188,806.6666870117188,796.1904907226562,809.084228515625,1736990914164406.0
808.6813354492188,808.6813354492188,798.2051391601562,813.5164794921875,1736990914164415.0
814.7252807617188,805.8607788085938,813.113525390625,819.96337890625,1736990914164423.0
799.8168334960938,790.1465454101562,804.6520385742188,806.2637329101562,1736990914164432.0
790.5494384765625,777.2527465820312,792.967041015625,792.5640869140625,1736990914164440.0
793.7728881835938,785.3113403320312,797.3992919921875,793.7728881835938,1736990914164449.0
796.996337890625,785.3113403320312,798.2051391601562,794.1758422851562,1736990914164473.0
803.8461303710938,779.6703491210938,800.2197875976562,798.6080322265625,1736990914164483.0
804.2490844726562,785.3113403320312,800.2197875976562,802.6373901367188,1736990914164491.0
802.2344360351562,799.8168334960938,792.5640869140625,797.8021850585938,1736990914185058.0
799.8168334960938,797.8021850585938,784.5054931640625,792.967041015625,1736990914185105.0
803.8461303710938,786.5201416015625,787.7289428710938,799.4139404296875,1736990914185117.0
799.8168334960938,789.7435913085938,790.1465454101562,796.996337890625,1736990914185127.0
797.8021850585938,795.7875366210938,786.923095703125,796.1904907226562,1736990914185136.0
802.2344360351562,798.2051391601562,792.967041015625,796.1904907226562,1736990914185147.0
801.8314819335938,788.5347900390625,796.996337890625,789.7435913085938,1736990914185156.0
794.981689453125,778.05859375,788.937744140625,785.3113403320312,1736990914185203.0
784.5054931640625,780.879150390625,785.3113403320312,778.05859375,1736990914185221.0
787.7289428710938,797.3992919921875,797.8021850585938,787.7289428710938,1736990914185236.0
799.8168334960938,798.6080322265625,800.6226806640625,796.996337890625,1736990914185249.0
798.6080322265625,785.7142944335938,795.7875366210938,795.3846435546875,1736990914185261.0
804.6520385742188,801.025634765625,807.87548828125,809.084228515625,1736990914228042.0
810.6959838867188,803.8461303710938,801.4285888671875,813.91943359375,1736990914228198.0
780.4761962890625,782.893798828125,789.3406372070312,786.1171875,1736990914229105.0
794.981689453125,786.1171875,788.1318969726562,796.996337890625,1736990914229073.0
785.3113403320312,782.087890625,795.3846435546875,795.3846435546875,1736990914229115.0
792.967041015625,783.2966918945312,800.2197875976562,805.4578857421875,1736990914229124.0
794.5787353515625,788.1318969726562,795.7875366210938,800.2197875976562,1736990914229133.0
802.2344360351562,799.010986328125,799.010986328125,801.4285888671875,1736990914229143.0
806.6666870117188,801.4285888671875,794.981689453125,804.6520385742188,1736990914229152.0
813.113525390625,807.069580078125,800.6226806640625,816.3369750976562,1736990914229170.0
809.89013671875,799.4139404296875,792.5640869140625,811.098876953125,1736990914229161.0
806.6666870117188,808.2783813476562,804.6520385742188,812.7106323242188,1736990914229178.0
774.4322509765625,764.3589477539062,783.2966918945312,775.2380981445312,1736990914271342.0
781.2820434570312,782.087890625,781.2820434570312,782.893798828125,1736990914271404.0
790.952392578125,799.010986328125,788.937744140625,795.7875366210938,1736990914271427.0
792.1611938476562,789.3406372070312,792.967041015625,796.5933837890625,1736990914271441.0
793.7728881835938,790.5494384765625,791.7582397460938,795.3846435546875,1736990914271452.0
790.952392578125,800.2197875976562,796.1904907226562,799.4139404296875,1736990914271463.0
787.3259887695312,793.7728881835938,801.025634765625,798.6080322265625,1736990914271472.0
789.7435913085938,789.3406372070312,802.6373901367188,798.2051391601562,1736990914271485.0
799.8168334960938,803.8461303710938,812.3076782226562,809.89013671875,1736990914271494.0
801.4285888671875,809.4871826171875,803.4432373046875,811.90478515625,1736990914271504.0
797.8021850585938,797.3992919921875,788.937744140625,799.8168334960938,1736990914271512.0
790.952392578125,784.1025390625,796.996337890625,792.1611938476562,1736990914271288.0
778.4615478515625,791.7582397460938,786.923095703125,785.7142944335938,1736990914313140.0
766.3735961914062,784.5054931640625,788.1318969726562,780.879150390625,1736990914313180.0
779.2673950195312,783.2966918945312,786.5201416015625,784.908447265625,1736990914313196.0
773.6264038085938,776.4468994140625,780.879150390625,785.3113403320312,1736990914313205.0
782.4908447265625,779.2673950195312,790.5494384765625,794.5787353515625,1736990914314464.0
805.4578857421875,804.2490844726562,798.6080322265625,806.2637329101562,1736990914314637.0
794.5787353515625,804.6520385742188,792.967041015625,801.025634765625,1736990914314678.0
781.2820434570312,790.952392578125,799.8168334960938,791.3552856445312,1736990914314778.0
780.0732421875,781.2820434570312,801.025634765625,782.4908447265625,1736990914314880.0
772.8204956054688,780.4761962890625,794.1758422851562,775.2380981445312,1736990914314909.0
773.6264038085938,787.3259887695312,792.5640869140625,778.05859375,1736990914315000.0
776.0439453125,794.1758422851562,792.1611938476562,784.908447265625,1736990914315017.0
780.879150390625,794.5787353515625,787.7289428710938,784.908447265625,1736990914359146.0
789.3406372070312,786.1171875,794.1758422851562,791.7582397460938,1736990914359213.0
793.7728881835938,792.967041015625,796.5933837890625,797.3992919921875,1736990914359222.0
799.4139404296875,800.2197875976562,803.4432373046875,800.2197875976562,1736990914359305.0
785.7142944335938,788.5347900390625,788.1318969726562,784.5054931640625,1736990914359200.0
790.952392578125,799.4139404296875,805.054931640625,796.1904907226562,1736990914359344.0
791.3552856445312,806.2637329101562,799.4139404296875,794.981689453125,1736990914359376.0
807.87548828125,814.7252807617188,804.6520385742188,809.084228515625,1736990914359389.0
801.025634765625,802.6373901367188,804.2490844726562,804.2490844726562,1736990914359401.0
781.2820434570312,780.4761962890625,793.3699340820312,784.1025390625,1736990914359582.0
779.2673950195312,771.6116943359375,784.1025390625,778.05859375,1736990914359599.0
781.6849975585938,779.6703491210938,783.2966918945312,784.1025390625,1736990914359608.0
782.893798828125,784.908447265625,780.4761962890625,787.7289428710938,1736990914402194.0
784.5054931640625,794.1758422851562,784.1025390625,779.6703491210938,1736990914402257.0
784.908447265625,805.054931640625,786.923095703125,778.8644409179688,1736990914402272.0
784.5054931640625,805.4578857421875,786.1171875,780.4761962890625,1736990914402282.0
783.6996459960938,804.2490844726562,790.1465454101562,784.908447265625,1736990914402290.0
790.5494384765625,809.084228515625,796.5933837890625,796.1904907226562,1736990914402299.0
807.069580078125,806.2637329101562,803.4432373046875,811.098876953125,1736990914406698.0
796.996337890625,784.5054931640625,794.1758422851562,799.4139404296875,1736990914406733.0
792.1611938476562,786.1171875,785.3113403320312,788.937744140625,1736990914406746.0
794.5787353515625,799.4139404296875,784.5054931640625,791.7582397460938,1736990914406755.0
790.1465454101562,800.6226806640625,792.967041015625,790.1465454101562,1736990914406764.0
789.7435913085938,801.4285888671875,799.010986328125,795.3846435546875,1736990914406773.0
788.937744140625,794.1758422851562,793.3699340820312,796.996337890625,1736990914450382.0
791.7582397460938,796.1904907226562,792.1611938476562,798.6080322265625,1736990914450422.0
795.7875366210938,802.6373901367188,799.8168334960938,800.6226806640625,1736990914450508.0
803.4432373046875,801.8314819335938,807.4725341796875,805.8607788085938,1736990914450523.0
812.7106323242188,805.4578857421875,805.8607788085938,814.7252807617188,1736990914450535.0
806.2637329101562,798.6080322265625,797.3992919921875,810.6959838867188,1736990914450549.0
794.1758422851562,786.923095703125,793.7728881835938,801.4285888671875,1736990914450561.0
799.4139404296875,793.7728881835938,792.1611938476562,804.2490844726562,1736990914450584.0
803.8461303710938,804.6520385742188,792.1611938476562,810.2930297851562,1736990914450598.0
793.7728881835938,799.4139404296875,787.3259887695312,799.4139404296875,1736990914450610.0
785.7142944335938,788.5347900390625,785.7142944335938,787.7289428710938,1736990914450622.0
780.4761962890625,782.893798828125,792.967041015625,789.7435913085938,1736990914450634.0
780.879150390625,785.3113403320312,793.7728881835938,792.5640869140625,1736990914512642.0
812.3076782226562,794.5787353515625,804.2490844726562,820.7692260742188,1736990914512728.0
807.4725341796875,791.3552856445312,797.8021850585938,808.6813354492188,1736990914512737.0
792.967041015625,785.7142944335938,794.5787353515625,801.4285888671875,1736990914512746.0
783.6996459960938,782.4908447265625,790.1465454101562,796.996337890625,1736990914512756.0
786.5201416015625,786.923095703125,790.5494384765625,791.3552856445312,1736990914512697.0
802.6373901367188,790.952392578125,801.025634765625,809.084228515625,1736990914512712.0
782.893798828125,786.923095703125,794.5787353515625,790.5494384765625,1736990914512766.0
784.1025390625,790.952392578125,794.1758422851562,788.5347900390625,1736990914514567.0
790.952392578125,790.1465454101562,797.3992919921875,794.981689453125,1736990914514599.0
801.8314819335938,794.1758422851562,804.2490844726562,801.8314819335938,1736990914514610.0
811.098876953125,790.5494384765625,793.3699340820312,807.87548828125,1736990914514620.0
813.5164794921875,794.981689453125,797.3992919921875,814.7252807617188,1736990914556966.0
805.054931640625,807.069580078125,811.90478515625,811.90478515625,1736990914557020.0
778.4615478515625,792.1611938476562,805.4578857421875,790.952392578125,1736990914557035.0
764.3589477539062,780.4761962890625,793.7728881835938,777.2527465820312,1736990914557348.0
774.4322509765625,781.6849975585938,781.2820434570312,778.05859375,1736990914557364.0
790.5494384765625,783.6996459960938,786.5201416015625,789.3406372070312,1736990914557389.0
795.3846435546875,783.2966918945312,796.996337890625,798.2051391601562,1736990914557401.0
790.1465454101562,788.1318969726562,792.5640869140625,788.5347900390625,1736990914557412.0
792.1611938476562,796.5933837890625,794.1758422851562,791.7582397460938,1736990914557423.0
798.2051391601562,803.8461303710938,795.7875366210938,805.8607788085938,1736990914557434.0
807.069580078125,801.025634765625,809.084228515625,809.89013671875,1736990914557445.0
797.3992919921875,790.1465454101562,808.6813354492188,794.5787353515625,1736990914557456.0
783.2966918945312,787.7289428710938,800.6226806640625,788.937744140625,1736990914600011.0
779.2673950195312,791.3552856445312,801.8314819335938,792.967041015625,1736990914600058.0
782.087890625,788.937744140625,794.981689453125,794.981689453125,1736990914600069.0
787.7289428710938,786.5201416015625,794.981689453125,801.8314819335938,1736990914600079.0
793.3699340820312,787.7289428710938,796.996337890625,805.054931640625,1736990914600087.0
797.8021850585938,791.7582397460938,790.1465454101562,805.054931640625,1736990914600101.0
799.4139404296875,792.5640869140625,785.3113403320312,801.4285888671875,1736990914600110.0
799.8168334960938,796.5933837890625,786.923095703125,801.025634765625,1736990914600120.0
788.937744140625,793.7728881835938,788.1318969726562,795.3846435546875,1736990914600128.0
784.1025390625,786.1171875,787.3259887695312,786.1171875,1736990914600138.0
791.3552856445312,790.5494384765625,788.937744140625,790.5494384765625,1736990914601458.0
791.7582397460938,790.952392578125,786.923095703125,794.5787353515625,1736990914601542.0
797.3992919921875,794.5787353515625,792.967041015625,796.996337890625,1736990914643956.0
809.89013671875,804.2490844726562,807.87548828125,809.084228515625,1736990914644013.0
814.3223266601562,797.8021850585938,799.4139404296875,808.6813354492188,1736990914644026.0
799.8168334960938,780.4761962890625,778.4615478515625,793.7728881835938,1736990914644036.0
788.5347900390625,781.2820434570312,775.6410522460938,785.3113403320312,1736990914644044.0
791.3552856445312,791.3552856445312,784.5054931640625,786.5201416015625,1736990914644052.0
790.952392578125,792.5640869140625,792.1611938476562,792.1611938476562,1736990914644060.0
788.1318969726562,790.952392578125,794.981689453125,796.1904907226562,1736990914644068.0
786.1171875,784.1025390625,794.1758422851562,787.7289428710938,1736990914644076.0
794.1758422851562,790.952392578125,793.3699340820312,787.7289428710938,1736990914644083.0
789.7435913085938,798.2051391601562,797.3992919921875,789.3406372070312,1736990914644091.0
779.2673950195312,784.908447265625,792.5640869140625,780.879150390625,1736990914644098.0
783.2966918945312,778.8644409179688,791.3552856445312,783.6996459960938,1736990914691115.0
782.4908447265625,785.7142944335938,788.937744140625,786.1171875,1736990914691149.0
792.1611938476562,792.5640869140625,781.6849975585938,790.1465454101562,1736990914691158.0
788.5347900390625,795.7875366210938,787.3259887695312,794.1758422851562,1736990914691170.0
781.6849975585938,796.5933837890625,788.1318969726562,796.996337890625,1736990914691181.0
797.3992919921875,797.3992919921875,794.1758422851562,805.4578857421875,1736990914691193.0
803.4432373046875,794.1758422851562,797.3992919921875,811.5018310546875,1736990914691204.0
808.6813354492188,804.2490844726562,800.6226806640625,816.7399291992188,1736990914691216.0
804.6520385742188,810.6959838867188,804.6520385742188,809.4871826171875,1736990914691227.0
790.1465454101562,803.040283203125,793.3699340820312,794.981689453125,1736990914691239.0
788.5347900390625,800.2197875976562,791.3552856445312,791.3552856445312,1736990914691251.0
795.3846435546875,796.1904907226562,802.2344360351562,795.3846435546875,1736990914691268.0
805.8607788085938,796.996337890625,803.8461303710938,805.4578857421875,1736990914734961.0
817.94873046875,787.3259887695312,792.5640869140625,804.6520385742188,1736990914735010.0
810.2930297851562,780.0732421875,783.6996459960938,789.7435913085938,1736990914735024.0
784.908447265625,809.89013671875,781.6849975585938,787.7289428710938,1736990914735090.0
793.3699340820312,794.5787353515625,782.893798828125,787.7289428710938,1736990914735108.0
800.6226806640625,790.5494384765625,788.5347900390625,790.1465454101562,1736990914735123.0
788.937744140625,794.981689453125,786.923095703125,785.7142944335938,1736990914735135.0
787.7289428710938,796.1904907226562,787.3259887695312,786.1171875,1736990914735147.0
800.2197875976562,803.8461303710938,785.3113403320312,795.3846435546875,1736990914735158.0
805.054931640625,803.4432373046875,786.923095703125,801.025634765625,1736990914735170.0
803.8461303710938,794.981689453125,793.3699340820312,799.8168334960938,1736990914735181.0
790.952392578125,801.8314819335938,787.7289428710938,790.1465454101562,1736990914735034.0
800.6226806640625,796.996337890625,795.7875366210938,799.4139404296875,1736990914777091.0
791.3552856445312,793.7728881835938,788.1318969726562,795.3846435546875,1736990914777110.0
781.2820434570312,794.981689453125,779.2673950195312,787.7289428710938,1736990914777122.0
784.5054931640625,796.5933837890625,784.5054931640625,790.952392578125,1736990914777135.0
792.1611938476562,789.7435913085938,791.7582397460938,796.996337890625,1736990914777145.0
786.1171875,788.937744140625,792.5640869140625,790.952392578125,1736990914777154.0
783.2966918945312,788.1318969726562,792.5640869140625,785.3113403320312,1736990914777163.0
790.952392578125,786.5201416015625,806.2637329101562,788.5347900390625,1736990914777173.0
784.5054931640625,781.2820434570312,803.4432373046875,779.6703491210938,1736990914777184.0
790.1465454101562,787.7289428710938,796.5933837890625,788.5347900390625,1736990914777193.0
782.087890625,797.8021850585938,805.054931640625,786.5201416015625,1736990914777202.0
751.062255859375,788.937744140625,795.3846435546875,758.7179565429688,1736990914777213.0
755.091552734375,780.879150390625,787.7289428710938,761.94140625,1736990914840920.0
768.7911987304688,784.5054931640625,787.7289428710938,771.2088012695312,1736990914840961.0
778.05859375,786.1171875,788.5347900390625,773.2234497070312,1736990914841714.0
784.1025390625,787.7289428710938,796.5933837890625,776.8497924804688,1736990914841723.0
778.8644409179688,788.1318969726562,790.5494384765625,781.6849975585938,1736990914841732.0
756.3003540039062,771.2088012695312,779.2673950195312,767.1795043945312,1736990914841746.0
772.0146484375,787.3259887695312,782.4908447265625,772.0146484375,1736990914841694.0
755.8974609375,763.1502075195312,777.6557006835938,758.7179565429688,1736990914841765.0
779.6703491210938,788.1318969726562,794.5787353515625,782.893798828125,1736990914841786.0
791.7582397460938,794.1758422851562,804.6520385742188,794.5787353515625,1736990914841794.0
796.1904907226562,792.1611938476562,806.6666870117188,792.967041015625,1736990914841801.0
770.0,774.4322509765625,781.6849975585938,767.5823974609375,1736990914841777.0
786.5201416015625,781.6849975585938,796.5933837890625,783.6996459960938,1736990914884959.0
786.923095703125,782.4908447265625,792.1611938476562,786.923095703125,1736990914885010.0
785.3113403320312,786.1171875,795.3846435546875,794.981689453125,1736990914885026.0
784.5054931640625,790.952392578125,798.2051391601562,798.6080322265625,1736990914885038.0
786.1171875,786.1171875,793.7728881835938,796.996337890625,1736990914885063.0
782.893798828125,784.908447265625,789.3406372070312,801.8314819335938,1736990914885076.0
784.5054931640625,796.5933837890625,789.7435913085938,804.6520385742188,1736990914885088.0
790.1465454101562,801.025634765625,788.937744140625,804.6520385742188,1736990914885099.0
786.1171875,792.5640869140625,786.1171875,799.4139404296875,1736990914885111.0
792.967041015625,784.908447265625,791.3552856445312,801.025634765625,1736990914885123.0
813.113525390625,801.4285888671875,811.5018310546875,815.93408203125,1736990914885320.0
807.069580078125,804.2490844726562,810.6959838867188,806.2637329101562,1736990914885344.0
779.2673950195312,779.6703491210938,787.7289428710938,778.8644409179688,1736990914948958.0
778.4615478515625,781.6849975585938,786.5201416015625,776.4468994140625,1736990914949004.0
790.1465454101562,790.952392578125,794.981689453125,790.952392578125,1736990914949204.0
801.8314819335938,790.5494384765625,797.8021850585938,801.4285888671875,1736990914949237.0
803.040283203125,798.2051391601562,800.6226806640625,806.6666870117188,1736990914950265.0
809.084228515625,795.3846435546875,791.3552856445312,804.6520385742188,1736990914950031.0
803.4432373046875,799.8168334960938,811.90478515625,810.2930297851562,1736990914950282.0
786.5201416015625,797.3992919921875,797.8021850585938,795.7875366210938,1736990914950302.0
778.05859375,789.7435913085938,782.893798828125,784.5054931640625,1736990914950311.0
772.8204956054688,780.879150390625,772.0146484375,779.2673950195312,1736990914950320.0
791.3552856445312,795.3846435546875,803.4432373046875,803.040283203125,1736990914950293.0
784.908447265625,788.1318969726562,782.893798828125,793.3699340820312,1736990914950329.0
786.923095703125,784.1025390625,789.7435913085938,796.996337890625,1736990914971339.0
809.084228515625,799.010986328125,811.098876953125,808.2783813476562,1736990914971412.0
811.098876953125,794.5787353515625,791.3552856445312,803.040283203125,1736990914971420.0
793.3699340820312,790.5494384765625,776.8497924804688,789.7435913085938,1736990914971428.0
784.908447265625,791.3552856445312,780.0732421875,790.1465454101562,1736990914971466.0
794.981689453125,797.3992919921875,793.7728881835938,801.025634765625,1736990914971487.0
792.5640869140625,791.3552856445312,796.1904907226562,795.3846435546875,1736990914971498.0
792.967041015625,782.893798828125,795.3846435546875,795.7875366210938,1736990914971508.0
805.4578857421875,795.3846435546875,802.2344360351562,805.4578857421875,1736990914971518.0
809.084228515625,800.6226806640625,797.8021850585938,803.8461303710938,1736990914971530.0
795.3846435546875,792.1611938476562,790.5494384765625,789.3406372070312,1736990914971539.0
791.7582397460938,786.5201416015625,803.040283203125,798.2051391601562,1736990914971395.0
793.3699340820312,800.2197875976562,795.3846435546875,799.8168334960938,1736990915014093.0
786.5201416015625,790.952392578125,792.1611938476562,793.3699340820312,1736990915014107.0
790.5494384765625,792.967041015625,792.967041015625,792.5640869140625,1736990915014117.0
784.5054931640625,794.981689453125,792.1611938476562,791.3552856445312,1736990915014148.0
794.1758422851562,799.4139404296875,794.5787353515625,792.5640869140625,1736990915014060.0
786.1171875,796.5933837890625,785.7142944335938,796.1904907226562,1736990915014162.0
811.90478515625,803.8461303710938,795.7875366210938,813.5164794921875,1736990915015161.0
818.7545776367188,803.040283203125,806.6666870117188,816.3369750976562,1736990915015267.0
797.8021850585938,791.3552856445312,799.4139404296875,804.6520385742188,1736990915015291.0
789.3406372070312,787.7289428710938,796.996337890625,797.8021850585938,1736990915015349.0
790.952392578125,797.8021850585938,799.4139404296875,790.1465454101562,1736990915015360.0
793.3699340820312,796.1904907226562,799.010986328125,788.5347900390625,1736990915015368.0
794.981689453125,785.7142944335938,794.981689453125,790.1465454101562,1736990915056204.0
798.6080322265625,794.1758422851562,794.1758422851562,789.7435913085938,1736990915056224.0
800.2197875976562,795.7875366210938,795.7875366210938,795.3846435546875,1736990915056309.0
809.89013671875,788.1318969726562,802.6373901367188,804.2490844726562,1736990915056373.0
803.8461303710938,788.1318969726562,798.2051391601562,797.8021850585938,1736990915056412.0
798.2051391601562,794.5787353515625,793.7728881835938,795.7875366210938,1736990915056422.0
805.054931640625,796.5933837890625,796.5933837890625,803.040283203125,1736990915056432.0
794.981689453125,792.967041015625,794.5787353515625,801.8314819335938,1736990915056441.0
795.3846435546875,793.7728881835938,793.3699340820312,799.010986328125,1736990915056450.0
800.2197875976562,795.7875366210938,787.3259887695312,793.7728881835938,1736990915056460.0
797.8021850585938,799.4139404296875,790.5494384765625,795.3846435546875,1736990915056469.0
799.8168334960938,790.952392578125,788.5347900390625,795.3846435546875,1736990915056479.0
794.981689453125,784.1025390625,785.7142944335938,791.3552856445312,1736990915118966.0
790.952392578125,777.2527465820312,791.3552856445312,790.952392578125,1736990915119015.0
794.981689453125,780.879150390625,793.3699340820312,787.7289428710938,1736990915119028.0
795.3846435546875,794.5787353515625,802.2344360351562,794.981689453125,1736990915119045.0
802.6373901367188,801.4285888671875,798.2051391601562,792.967041015625,1736990915119053.0
802.6373901367188,805.8607788085938,794.981689453125,791.7582397460938,1736990915119061.0
794.5787353515625,791.3552856445312,794.981689453125,789.3406372070312,1736990915119037.0
798.6080322265625,799.4139404296875,797.3992919921875,792.1611938476562,1736990915119070.0
789.3406372070312,792.5640869140625,793.3699340820312,785.3113403320312,1736990915120030.0
790.1465454101562,788.5347900390625,792.5640869140625,792.1611938476562,1736990915120053.0
797.3992919921875,783.2966918945312,790.952392578125,802.6373901367188,1736990915120062.0
799.010986328125,789.7435913085938,790.1465454101562,806.6666870117188,1736990915120069.0
802.6373901367188,799.8168334960938,794.981689453125,807.87548828125,1736990915161921.0
782.893798828125,795.7875366210938,793.3699340820312,792.5640869140625,1736990915161986.0
801.4285888671875,805.4578857421875,801.4285888671875,808.6813354492188,1736990915161997.0
805.054931640625,796.996337890625,796.996337890625,806.2637329101562,1736990915162006.0
794.981689453125,797.3992919921875,796.1904907226562,796.1904907226562,1736990915161959.0
799.4139404296875,779.2673950195312,792.1611938476562,801.8314819335938,1736990915162013.0
799.4139404296875,784.1025390625,797.3992919921875,803.040283203125,1736990915162028.0
782.4908447265625,794.1758422851562,785.7142944335938,786.923095703125,1736990915161974.0
788.937744140625,795.7875366210938,790.952392578125,789.3406372070312,1736990915161967.0
801.025634765625,792.1611938476562,798.2051391601562,805.054931640625,1736990915162072.0
794.981689453125,790.5494384765625,802.2344360351562,802.2344360351562,1736990915162096.0
788.937744140625,792.5640869140625,801.8314819335938,794.5787353515625,1736990915162112.0
791.7582397460938,807.87548828125,809.89013671875,801.025634765625,1736990915204948.0
792.967041015625,791.7582397460938,793.3699340820312,790.952392578125,1736990915205024.0
790.952392578125,786.923095703125,790.952392578125,788.937744140625,1736990915205035.0
797.8021850585938,808.6813354492188,810.6959838867188,802.2344360351562,1736990915205011.0
789.7435913085938,784.5054931640625,791.3552856445312,788.1318969726562,1736990915205045.0
784.5054931640625,790.5494384765625,788.937744140625,788.937744140625,1736990915205079.0
778.8644409179688,785.3113403320312,788.937744140625,781.2820434570312,1736990915205097.0
786.1171875,772.0146484375,794.5787353515625,788.5347900390625,1736990915205108.0
804.6520385742188,784.1025390625,797.8021850585938,811.90478515625,1736990915205119.0
811.5018310546875,799.4139404296875,801.025634765625,820.7692260742188,1736990915205130.0
797.3992919921875,798.6080322265625,801.8314819335938,798.2051391601562,1736990915206028.0
786.5201416015625,808.2783813476562,803.8461303710938,786.923095703125,1736990915206052.0
790.5494384765625,805.4578857421875,799.4139404296875,793.7728881835938,1736990915269043.0
794.981689453125,797.3992919921875,790.5494384765625,794.5787353515625,1736990915269103.0
801.4285888671875,798.6080322265625,799.010986328125,799.8168334960938,1736990915269112.0
808.2783813476562,799.010986328125,800.2197875976562,801.4285888671875,1736990915269120.0
805.8607788085938,800.6226806640625,796.996337890625,802.6373901367188,1736990915269130.0
802.2344360351562,803.8461303710938,801.8314819335938,809.89013671875,1736990915269138.0
807.069580078125,802.2344360351562,805.8607788085938,812.3076782226562,1736990915269146.0
801.025634765625,785.7142944335938,796.996337890625,802.2344360351562,1736990915269154.0
790.1465454101562,780.4761962890625,793.3699340820312,797.3992919921875,1736990915269161.0
792.1611938476562,789.3406372070312,795.3846435546875,799.010986328125,1736990915269169.0
801.4285888671875,796.5933837890625,791.7582397460938,802.6373901367188,1736990915269177.0
792.967041015625,796.1904907226562,791.3552856445312,794.981689453125,1736990915269090.0
806.2637329101562,797.8021850585938,784.908447265625,804.2490844726562,1736990915312027.0
799.8168334960938,802.2344360351562,797.8021850585938,801.4285888671875,1736990915312123.0
798.6080322265625,800.2197875976562,803.040283203125,802.2344360351562,1736990915312132.0
806.6666870117188,804.2490844726562,799.8168334960938,805.4578857421875,1736990915312140.0
807.069580078125,804.6520385742188,794.1758422851562,808.6813354492188,1736990915312148.0
807.4725341796875,802.6373901367188,804.2490844726562,817.1428833007812,1736990915312157.0
797.8021850585938,796.5933837890625,790.5494384765625,803.8461303710938,1736990915312115.0
799.010986328125,794.5787353515625,784.1025390625,805.4578857421875,1736990915312104.0
807.4725341796875,806.6666870117188,809.89013671875,819.96337890625,1736990915312166.0
800.6226806640625,794.1758422851562,803.040283203125,806.6666870117188,1736990915312440.0
790.5494384765625,781.2820434570312,790.5494384765625,794.1758422851562,1736990915312494.0
790.1465454101562,779.2673950195312,786.1171875,789.7435913085938,1736990915312506.0
790.952392578125,784.908447265625,786.923095703125,789.7435913085938,1736990915354960.0
789.3406372070312,796.5933837890625,791.3552856445312,795.7875366210938,1736990915355012.0
776.8497924804688,787.7289428710938,786.5201416015625,791.7582397460938,1736990915355018.0
782.087890625,788.5347900390625,790.952392578125,796.996337890625,1736990915355029.0
796.1904907226562,799.8168334960938,788.937744140625,798.6080322265625,1736990915355005.0
799.4139404296875,800.6226806640625,802.6373901367188,810.2930297851562,1736990915355041.0
805.8607788085938,802.2344360351562,803.040283203125,807.87548828125,1736990915355071.0
798.2051391601562,790.1465454101562,797.8021850585938,800.2197875976562,1736990915355086.0
801.025634765625,789.3406372070312,799.010986328125,800.6226806640625,1736990915355096.0
794.5787353515625,801.4285888671875,799.010986328125,800.6226806640625,1736990915355105.0
786.923095703125,804.2490844726562,788.5347900390625,800.2197875976562,1736990915355114.0
783.2966918945312,798.2051391601562,784.908447265625,794.1758422851562,1736990915355199.0
790.1465454101562,806.6666870117188,796.996337890625,805.4578857421875,1736990915398938.0
793.3699340820312,802.6373901367188,793.3699340820312,804.6520385742188,1736990915398984.0
791.7582397460938,792.1611938476562,792.967041015625,790.1465454101562,1736990915399001.0
794.981689453125,792.967041015625,798.6080322265625,796.996337890625,1736990915399141.0
795.7875366210938,794.5787353515625,790.1465454101562,802.2344360351562,1736990915399166.0
811.5018310546875,796.996337890625,794.5787353515625,811.098876953125,1736990915399184.0
814.3223266601562,793.3699340820312,805.8607788085938,812.3076782226562,1736990915399198.0
803.8461303710938,798.6080322265625,807.069580078125,805.054931640625,1736990915399223.0
792.5640869140625,796.1904907226562,802.6373901367188,796.996337890625,1736990915399236.0
784.908447265625,790.1465454101562,800.2197875976562,794.5787353515625,1736990915399248.0
784.908447265625,793.3699340820312,790.952392578125,796.1904907226562,1736990915399257.0
784.1025390625,795.7875366210938,786.1171875,791.3552856445312,1736990915399269.0
793.7728881835938,801.8314819335938,797.8021850585938,794.981689453125,1736990915440953.0
796.5933837890625,794.1758422851562,799.4139404296875,796.5933837890625,1736990915440997.0
794.1758422851562,783.6996459960938,790.1465454101562,792.1611938476562,1736990915441867.0
793.7728881835938,788.937744140625,786.923095703125,792.1611938476562,1736990915442035.0
797.8021850585938,803.4432373046875,794.981689453125,801.8314819335938,1736990915442046.0
819.96337890625,821.1721801757812,810.6959838867188,819.5604248046875,1736990915442055.0
807.4725341796875,804.2490844726562,803.040283203125,806.6666870117188,1736990915442130.0
790.952392578125,784.5054931640625,789.7435913085938,789.3406372070312,1736990915442141.0
796.1904907226562,785.3113403320312,791.7582397460938,790.1465454101562,1736990915442149.0
793.7728881835938,786.1171875,794.5787353515625,796.1904907226562,1736990915442157.0
803.8461303710938,795.3846435546875,796.996337890625,803.040283203125,1736990915442165.0
803.8461303710938,792.967041015625,797.8021850585938,801.025634765625,1736990915442173.0
796.996337890625,787.3259887695312,794.5787353515625,797.8021850585938,1736990915483937.0
797.3992919921875,805.4578857421875,793.7728881835938,805.8607788085938,1736990915483990.0
800.2197875976562,803.8461303710938,792.5640869140625,801.8314819335938,1736990915483996.0
803.040283203125,793.7728881835938,797.3992919921875,804.6520385742188,1736990915483976.0
802.2344360351562,803.4432373046875,801.025634765625,801.025634765625,1736990915484001.0
799.8168334960938,798.2051391601562,800.2197875976562,809.4871826171875,1736990915483985.0
810.6959838867188,798.2051391601562,805.4578857421875,808.2783813476562,1736990915484008.0
813.91943359375,791.3552856445312,803.4432373046875,811.90478515625,1736990915484069.0
816.3369750976562,799.010986328125,804.6520385742188,812.7106323242188,1736990915484079.0
803.4432373046875,797.8021850585938,797.8021850585938,802.2344360351562,1736990915484090.0
785.7142944335938,789.3406372070312,784.5054931640625,788.937744140625,1736990915484099.0
784.1025390625,786.5201416015625,787.3259887695312,788.1318969726562,1736990915484112.0
784.5054931640625,783.2966918945312,787.7289428710938,785.3113403320312,1736990915527165.0
785.7142944335938,785.7142944335938,784.1025390625,785.3113403320312,1736990915527219.0
787.7289428710938,792.967041015625,784.908447265625,791.7582397460938,1736990915527233.0
790.5494384765625,797.3992919921875,794.1758422851562,794.1758422851562,1736990915527241.0
790.5494384765625,795.3846435546875,802.2344360351562,795.3846435546875,1736990915528557.0
792.967041015625,792.1611938476562,807.87548828125,798.2051391601562,1736990915528713.0
796.5933837890625,799.4139404296875,804.2490844726562,801.025634765625,1736990915528733.0
793.7728881835938,807.87548828125,795.7875366210938,800.2197875976562,1736990915528743.0
795.7875366210938,799.4139404296875,797.8021850585938,794.981689453125,1736990915528752.0
815.1282348632812,802.2344360351562,808.6813354492188,803.040283203125,1736990915528761.0
808.2783813476562,796.5933837890625,798.2051391601562,802.2344360351562,1736990915528770.0
788.1318969726562,786.5201416015625,780.4761962890625,794.5787353515625,1736990915528780.0
786.5201416015625,797.3992919921875,779.2673950195312,791.3552856445312,1736990915591326.0
786.5201416015625,786.1171875,788.5347900390625,792.1611938476562,1736990915591464.0
790.952392578125,785.7142944335938,791.7582397460938,793.7728881835938,1736990915591474.0
784.5054931640625,794.5787353515625,784.908447265625,783.2966918945312,1736990915591437.0
785.7142944335938,789.3406372070312,790.5494384765625,785.7142944335938,1736990915591457.0
789.7435913085938,792.967041015625,801.025634765625,792.5640869140625,1736990915591518.0
799.8168334960938,803.4432373046875,815.1282348632812,802.2344360351562,1736990915591572.0
817.1428833007812,811.098876953125,813.5164794921875,814.7252807617188,1736990915591596.0
805.8607788085938,805.8607788085938,793.7728881835938,801.4285888671875,1736990915591609.0
787.3259887695312,794.5787353515625,790.5494384765625,782.4908447265625,1736990915591627.0
778.8644409179688,783.2966918945312,784.5054931640625,772.4176025390625,1736990915591646.0
778.8644409179688,776.8497924804688,779.6703491210938,772.0146484375,1736990915591662.0
784.5054931640625,782.4908447265625,786.1171875,780.0732421875,1736990915632935.0
788.1318969726562,796.996337890625,794.1758422851562,796.996337890625,1736990915632980.0
796.996337890625,796.5933837890625,794.5787353515625,801.4285888671875,1736990915632985.0
803.8461303710938,796.5933837890625,800.6226806640625,803.040283203125,1736990915632990.0
786.5201416015625,793.3699340820312,794.981689453125,789.7435913085938,1736990915632972.0
807.069580078125,799.8168334960938,799.010986328125,801.4285888671875,1736990915632995.0
813.5164794921875,802.2344360351562,793.7728881835938,807.4725341796875,1736990915633680.0
809.084228515625,805.8607788085938,799.8168334960938,811.098876953125,1736990915633694.0
800.2197875976562,807.87548828125,802.6373901367188,806.2637329101562,1736990915633700.0
780.4761962890625,790.5494384765625,794.981689453125,785.7142944335938,1736990915633709.0
768.7911987304688,781.6849975585938,791.3552856445312,771.2088012695312,1736990915633723.0
786.5201416015625,792.967041015625,795.7875366210938,787.7289428710938,1736990915633741.0
790.1465454101562,796.1904907226562,797.8021850585938,799.8168334960938,1736990915676024.0
788.937744140625,794.981689453125,793.7728881835938,796.5933837890625,1736990915676051.0
782.4908447265625,788.937744140625,786.923095703125,788.937744140625,1736990915676060.0
786.923095703125,783.6996459960938,789.7435913085938,790.1465454101562,1736990915676074.0
799.010986328125,782.893798828125,801.8314819335938,795.7875366210938,1736990915676085.0
792.5640869140625,783.6996459960938,803.4432373046875,796.996337890625,1736990915676095.0
786.5201416015625,789.3406372070312,790.952392578125,793.7728881835938,1736990915676105.0
787.7289428710938,794.1758422851562,787.3259887695312,785.7142944335938,1736990915676132.0
785.3113403320312,794.5787353515625,794.981689453125,782.4908447265625,1736990915676142.0
786.5201416015625,795.7875366210938,796.5933837890625,784.908447265625,1736990915676153.0
786.1171875,797.3992919921875,789.3406372070312,786.923095703125,1736990915676178.0
803.8461303710938,809.4871826171875,796.5933837890625,802.6373901367188,1736990915676193.0
806.6666870117188,806.6666870117188,794.981689453125,803.040283203125,1736990915717933.0
793.3699340820312,786.5201416015625,794.981689453125,795.3846435546875,1736990915717977.0
787.3259887695312,787.3259887695312,784.1025390625,784.5054931640625,1736990915717990.0
789.7435913085938,785.7142944335938,790.952392578125,786.5201416015625,1736990915717984.0
784.908447265625,791.7582397460938,787.3259887695312,789.3406372070312,1736990915717996.0
788.1318969726562,793.3699340820312,786.1171875,786.1171875,1736990915718006.0
794.5787353515625,791.7582397460938,787.3259887695312,794.981689453125,1736990915717969.0
803.4432373046875,793.7728881835938,786.1171875,790.5494384765625,1736990915718026.0
809.89013671875,784.908447265625,795.3846435546875,797.3992919921875,1736990915718778.0
804.6520385742188,782.893798828125,794.5787353515625,796.996337890625,1736990915718792.0
801.4285888671875,795.7875366210938,790.1465454101562,793.7728881835938,1736990915718798.0
794.5787353515625,798.2051391601562,791.7582397460938,792.5640869140625,1736990915718804.0
790.952392578125,801.8314819335938,788.1318969726562,796.996337890625,1736990915782012.0
792.5640869140625,805.8607788085938,793.7728881835938,803.4432373046875,1736990915782062.0
788.5347900390625,787.7289428710938,779.2673950195312,794.5787353515625,1736990915782101.0
784.908447265625,794.1758422851562,786.5201416015625,799.8168334960938,1736990915782086.0
785.3113403320312,791.7582397460938,787.3259887695312,794.981689453125,1736990915782164.0
777.6557006835938,794.981689453125,790.5494384765625,792.967041015625,1736990915782245.0
781.6849975585938,795.7875366210938,791.7582397460938,792.967041015625,1736990915782284.0
793.7728881835938,795.3846435546875,794.981689453125,800.6226806640625,1736990915782300.0
793.3699340820312,791.3552856445312,789.7435913085938,794.1758422851562,1736990915782310.0
780.4761962890625,786.5201416015625,780.4761962890625,782.087890625,1736990915782319.0
784.5054931640625,788.937744140625,787.3259887695312,785.7142944335938,1736990915782329.0
794.5787353515625,798.6080322265625,794.981689453125,790.1465454101562,1736990915782402.0
798.2051391601562,804.2490844726562,790.5494384765625,796.996337890625,1736990915824032.0
786.5201416015625,799.8168334960938,792.5640869140625,788.937744140625,1736990915824139.0
774.8351440429688,786.923095703125,778.4615478515625,776.8497924804688,1736990915824151.0
784.5054931640625,790.952392578125,782.4908447265625,779.2673950195312,1736990915824159.0
794.981689453125,804.6520385742188,796.5933837890625,793.3699340820312,1736990915824170.0
798.6080322265625,806.6666870117188,793.7728881835938,801.025634765625,1736990915824119.0
787.3259887695312,799.8168334960938,787.7289428710938,796.5933837890625,1736990915824245.0
791.3552856445312,797.8021850585938,795.3846435546875,789.3406372070312,1736990915824281.0
785.3113403320312,790.952392578125,784.908447265625,789.7435913085938,1736990915824264.0
797.8021850585938,798.2051391601562,801.4285888671875,799.010986328125,1736990915824290.0
806.2637329101562,792.967041015625,810.6959838867188,801.8314819335938,1736990915826141.0
798.2051391601562,788.937744140625,810.2930297851562,796.5933837890625,1736990915826182.0
794.5787353515625,790.1465454101562,800.6226806640625,793.3699340820312,1736990915868970.0
792.1611938476562,794.1758422851562,793.3699340820312,786.923095703125,1736990915869005.0
780.0732421875,794.1758422851562,791.7582397460938,784.1025390625,1736990915869013.0
777.6557006835938,797.3992919921875,794.5787353515625,784.5054931640625,1736990915869034.0
773.6264038085938,791.7582397460938,781.2820434570312,779.2673950195312,1736990915869039.0
782.893798828125,802.6373901367188,799.010986328125,790.5494384765625,1736990915869022.0
771.2088012695312,790.5494384765625,788.1318969726562,770.4029541015625,1736990915869049.0
766.7765502929688,781.2820434570312,791.3552856445312,765.5677490234375,1736990915869054.0
780.0732421875,783.2966918945312,790.952392578125,779.6703491210938,1736990915869060.0
792.967041015625,788.1318969726562,794.1758422851562,790.1465454101562,1736990915869065.0
779.2673950195312,796.1904907226562,780.4761962890625,782.4908447265625,1736990915869044.0
792.1611938476562,791.3552856445312,796.996337890625,789.7435913085938,1736990915869070.0
803.040283203125,792.5640869140625,798.6080322265625,801.025634765625,1736990915911118.0
812.3076782226562,800.6226806640625,803.8461303710938,812.3076782226562,1736990915911127.0
821.5750732421875,802.2344360351562,807.4725341796875,818.3516235351562,1736990915911135.0
821.97802734375,792.967041015625,801.025634765625,817.5457763671875,1736990915911143.0
819.5604248046875,789.3406372070312,792.967041015625,817.1428833007812,1736990915911152.0
820.3662719726562,789.7435913085938,785.7142944335938,816.7399291992188,1736990915911159.0
791.3552856445312,789.7435913085938,795.7875366210938,789.7435913085938,1736990915911098.0
829.2307739257812,799.8168334960938,795.7875366210938,826.8131713867188,1736990915911167.0
832.8571166992188,813.113525390625,803.4432373046875,836.886474609375,1736990915911177.0
828.8278198242188,802.6373901367188,795.7875366210938,829.6337280273438,1736990915911185.0
826.4102783203125,786.1171875,790.952392578125,817.5457763671875,1736990915911193.0
814.7252807617188,789.3406372070312,790.1465454101562,813.91943359375,1736990915911201.0
807.87548828125,794.1758422851562,793.3699340820312,815.1282348632812,1736990915954084.0
813.91943359375,789.7435913085938,799.010986328125,817.1428833007812,1736990915954106.0
814.7252807617188,789.7435913085938,792.1611938476562,821.5750732421875,1736990915954189.0
820.7692260742188,790.1465454101562,792.967041015625,823.1868286132812,1736990915954262.0
836.4835205078125,803.040283203125,804.2490844726562,828.4249267578125,1736990915954276.0
829.6337280273438,807.87548828125,797.3992919921875,822.3809814453125,1736990915954320.0
809.4871826171875,801.8314819335938,792.1611938476562,811.5018310546875,1736990915954334.0
803.8461303710938,792.1611938476562,798.2051391601562,808.2783813476562,1736990915954375.0
805.054931640625,786.923095703125,801.8314819335938,809.4871826171875,1736990915954390.0
809.4871826171875,796.1904907226562,808.2783813476562,814.7252807617188,1736990915954403.0
806.2637329101562,794.5787353515625,806.2637329101562,810.6959838867188,1736990915954487.0
806.6666870117188,797.8021850585938,809.084228515625,811.90478515625,1736990915954566.0
810.6959838867188,806.2637329101562,813.91943359375,819.5604248046875,1736990916017928.0
794.1758422851562,794.1758422851562,793.7728881835938,800.2197875976562,1736990916017965.0
789.3406372070312,789.7435913085938,789.7435913085938,797.3992919921875,1736990916017974.0
815.1282348632812,782.4908447265625,795.3846435546875,814.3223266601562,1736990916017986.0
812.3076782226562,782.893798828125,796.996337890625,819.5604248046875,1736990916017991.0
801.8314819335938,786.1171875,795.3846435546875,814.3223266601562,1736990916017996.0
797.8021850585938,792.967041015625,802.2344360351562,808.2783813476562,1736990916018012.0
794.981689453125,791.7582397460938,795.3846435546875,808.6813354492188,1736990916018001.0
802.6373901367188,788.5347900390625,795.7875366210938,809.084228515625,1736990916017980.0
798.6080322265625,794.1758422851562,801.025634765625,807.4725341796875,1736990916018024.0
794.1758422851562,793.3699340820312,793.7728881835938,803.4432373046875,1736990916018032.0
799.4139404296875,798.2051391601562,801.4285888671875,806.2637329101562,1736990916018040.0
809.084228515625,799.4139404296875,809.084228515625,815.1282348632812,1736990916060999.0
819.1575317382812,802.2344360351562,813.91943359375,823.1868286132812,1736990916061043.0
811.098876953125,800.2197875976562,804.2490844726562,812.3076782226562,1736990916061876.0
799.8168334960938,792.5640869140625,787.3259887695312,797.3992919921875,1736990916061956.0
797.3992919921875,792.967041015625,789.3406372070312,795.3846435546875,1736990916061971.0
793.3699340820312,778.05859375,784.908447265625,787.7289428710938,1736990916061981.0
790.1465454101562,778.8644409179688,784.1025390625,789.3406372070312,1736990916061990.0
788.937744140625,790.952392578125,795.7875366210938,792.1611938476562,1736990916062003.0
790.1465454101562,793.3699340820312,796.1904907226562,789.7435913085938,1736990916062012.0
805.054931640625,804.2490844726562,796.996337890625,804.6520385742188,1736990916062021.0
809.084228515625,805.054931640625,801.8314819335938,807.069580078125,1736990916062030.0
798.2051391601562,800.6226806640625,801.4285888671875,802.2344360351562,1736990916062040.0
803.040283203125,800.6226806640625,804.6520385742188,813.113525390625,1736990916105953.0
794.981689453125,791.7582397460938,792.967041015625,804.6520385742188,1736990916105989.0
799.010986328125,800.6226806640625,786.923095703125,797.8021850585938,1736990916106004.0
786.1171875,790.952392578125,790.5494384765625,793.7728881835938,1736990916106015.0
795.7875366210938,796.5933837890625,798.2051391601562,801.8314819335938,1736990916106020.0
789.3406372070312,790.952392578125,788.5347900390625,792.967041015625,1736990916105998.0
796.996337890625,794.1758422851562,798.6080322265625,799.8168334960938,1736990916106025.0
801.4285888671875,796.5933837890625,805.8607788085938,803.040283203125,1736990916106036.0
802.2344360351562,792.967041015625,805.4578857421875,803.8461303710938,1736990916106042.0
807.069580078125,795.3846435546875,803.040283203125,810.6959838867188,1736990916106055.0
796.1904907226562,795.7875366210938,802.2344360351562,800.6226806640625,1736990916106031.0
794.981689453125,796.5933837890625,784.5054931640625,793.7728881835938,1736990916106010.0
807.87548828125,792.5640869140625,801.8314819335938,809.4871826171875,1736990916148974.0
811.90478515625,803.8461303710938,812.3076782226562,816.7399291992188,1736990916149028.0
806.2637329101562,794.5787353515625,809.4871826171875,811.098876953125,1736990916149016.0
808.6813354492188,807.87548828125,803.8461303710938,809.084228515625,1736990916149037.0
801.8314819335938,800.6226806640625,793.7728881835938,800.6226806640625,1736990916150104.0
798.2051391601562,794.5787353515625,788.1318969726562,794.981689453125,1736990916150129.0
803.040283203125,805.054931640625,792.967041015625,799.8168334960938,1736990916150143.0
806.2637329101562,809.4871826171875,796.1904907226562,805.8607788085938,1736990916150153.0
796.5933837890625,796.1904907226562,794.1758422851562,800.2197875976562,1736990916150167.0
784.1025390625,788.1318969726562,793.3699340820312,794.1758422851562,1736990916150179.0
783.6996459960938,793.7728881835938,800.2197875976562,796.996337890625,1736990916150188.0
795.3846435546875,791.3552856445312,808.6813354492188,800.2197875976562,1736990916150214.0
791.3552856445312,781.6849975585938,804.2490844726562,795.7875366210938,1736990916193130.0
791.7582397460938,790.952392578125,794.981689453125,796.5933837890625,1736990916193152.0
802.2344360351562,792.5640869140625,788.5347900390625,809.084228515625,1736990916193337.0
805.8607788085938,788.1318969726562,787.3259887695312,803.040283203125,1736990916193353.0
799.8168334960938,801.4285888671875,792.1611938476562,786.5201416015625,1736990916193367.0
788.1318969726562,801.4285888671875,791.7582397460938,784.5054931640625,1736990916193380.0
785.3113403320312,796.996337890625,795.3846435546875,788.5347900390625,1736990916193390.0
790.1465454101562,799.4139404296875,799.010986328125,792.1611938476562,1736990916193431.0
797.8021850585938,795.3846435546875,793.7728881835938,796.1904907226562,1736990916193535.0
807.87548828125,786.923095703125,789.3406372070312,805.8607788085938,1736990916193551.0
811.90478515625,784.908447265625,787.7289428710938,807.069580078125,1736990916193564.0
807.069580078125,793.7728881835938,787.7289428710938,804.6520385742188,1736990916193577.0
799.4139404296875,797.8021850585938,789.7435913085938,795.3846435546875,1736990916235064.0
786.1171875,794.981689453125,790.5494384765625,786.923095703125,1736990916235084.0
784.1025390625,788.1318969726562,789.3406372070312,790.5494384765625,1736990916235207.0
786.5201416015625,779.2673950195312,785.7142944335938,788.1318969726562,1736990916235244.0
783.2966918945312,789.7435913085938,788.1318969726562,790.5494384765625,1736990916235261.0
787.7289428710938,795.7875366210938,791.7582397460938,795.7875366210938,1736990916235316.0
790.952392578125,794.1758422851562,795.3846435546875,802.6373901367188,1736990916236186.0
787.3259887695312,791.3552856445312,797.8021850585938,799.8168334960938,1736990916236214.0
782.893798828125,787.7289428710938,799.010986328125,788.1318969726562,1736990916236239.0
791.3552856445312,784.5054931640625,795.3846435546875,790.952392578125,1736990916236403.0
790.5494384765625,783.6996459960938,791.7582397460938,788.1318969726562,1736990916236417.0
787.3259887695312,788.5347900390625,799.4139404296875,788.5347900390625,1736990916236371.0
799.010986328125,794.5787353515625,790.5494384765625,789.3406372070312,1736990916279014.0
807.069580078125,796.5933837890625,796.996337890625,801.4285888671875,1736990916279072.0
800.2197875976562,796.5933837890625,802.2344360351562,808.2783813476562,1736990916279098.0
791.3552856445312,797.3992919921875,799.010986328125,801.8314819335938,1736990916279112.0
790.1465454101562,788.5347900390625,794.5787353515625,799.010986328125,1736990916279126.0
791.3552856445312,790.5494384765625,793.7728881835938,791.7582397460938,1736990916279137.0
799.8168334960938,805.054931640625,805.8607788085938,799.010986328125,1736990916279149.0
796.5933837890625,803.8461303710938,811.90478515625,802.2344360351562,1736990916279162.0
783.6996459960938,801.025634765625,801.8314819335938,786.5201416015625,1736990916279174.0
779.2673950195312,801.025634765625,792.5640869140625,780.879150390625,1736990916279187.0
772.8204956054688,792.5640869140625,783.2966918945312,776.4468994140625,1736990916279199.0
773.2234497070312,792.1611938476562,779.6703491210938,775.2380981445312,1736990916279210.0
776.8497924804688,787.3259887695312,780.879150390625,776.0439453125,1736990916341935.0
780.879150390625,781.6849975585938,799.4139404296875,781.6849975585938,1736990916341992.0
784.908447265625,780.4761962890625,800.2197875976562,780.0732421875,1736990916341998.0
779.2673950195312,786.1171875,788.5347900390625,778.05859375,1736990916341978.0
792.5640869140625,788.1318969726562,793.7728881835938,784.908447265625,1736990916342003.0
788.1318969726562,795.3846435546875,795.7875366210938,788.5347900390625,1736990916342009.0
778.8644409179688,786.1171875,793.7728881835938,779.6703491210938,1736990916341986.0
785.3113403320312,795.7875366210938,797.3992919921875,786.1171875,1736990916342015.0
790.1465454101562,795.3846435546875,801.025634765625,790.1465454101562,1736990916342890.0
785.3113403320312,799.010986328125,801.4285888671875,788.937744140625,1736990916342922.0
770.4029541015625,788.937744140625,799.8168334960938,767.1795043945312,1736990916342950.0
778.05859375,796.5933837890625,796.1904907226562,776.0439453125,1736990916342938.0
762.7472534179688,790.952392578125,804.2490844726562,765.970703125,1736990916384980.0
746.6300659179688,793.7728881835938,806.6666870117188,747.8388061523438,1736990916385022.0
707.5457763671875,784.1025390625,814.3223266601562,712.3809814453125,1736990916385063.0
692.6373901367188,777.6557006835938,815.93408203125,699.89013671875,1736990916385076.0
692.2344360351562,778.8644409179688,820.7692260742188,701.90478515625,1736990916385085.0
710.3662719726562,777.6557006835938,848.974365234375,709.5604248046875,1736990916385092.0
727.2893676757812,792.1611938476562,811.5018310546875,724.8717651367188,1736990916385037.0
701.5018310546875,770.8058471679688,853.003662109375,693.8461303710938,1736990916385100.0
657.9853515625,759.120849609375,817.5457763671875,658.7911987304688,1736990916385366.0
641.062255859375,763.5531005859375,796.5933837890625,645.4945068359375,1736990916385384.0
658.7911987304688,768.7911987304688,792.1611938476562,655.1648559570312,1736990916385393.0
660.8058471679688,767.9853515625,796.996337890625,662.0146484375,1736990916385401.0
669.2673950195312,776.8497924804688,810.6959838867188,672.893798828125,1736990916426951.0
677.3259887695312,771.2088012695312,822.3809814453125,680.5494384765625,1736990916426989.0
678.937744140625,764.3589477539062,822.3809814453125,686.1904907226562,1736990916427004.0
703.5164794921875,771.6116943359375,818.7545776367188,703.113525390625,1736990916427014.0
730.915771484375,771.6116943359375,824.7985229492188,725.6776733398438,1736990916427022.0
748.6447143554688,774.029296875,822.3809814453125,740.989013671875,1736990916427056.0
755.091552734375,782.4908447265625,806.2637329101562,746.2271118164062,1736990916427067.0
761.1355590820312,791.3552856445312,799.4139404296875,757.912109375,1736990916427077.0
771.6116943359375,792.1611938476562,794.981689453125,773.6264038085938,1736990916427086.0
773.6264038085938,788.5347900390625,786.5201416015625,776.4468994140625,1736990916427094.0
782.4908447265625,793.7728881835938,781.2820434570312,780.4761962890625,1736990916427947.0
793.3699340820312,796.5933837890625,782.893798828125,789.7435913085938,1736990916427965.0
802.2344360351562,796.1904907226562,790.952392578125,801.025634765625,1736990916469918.0
816.3369750976562,797.8021850585938,794.1758422851562,808.6813354492188,1736990916469993.0
815.93408203125,799.010986328125,798.2051391601562,812.3076782226562,1736990916469976.0
825.2014770507812,803.8461303710938,799.010986328125,819.96337890625,1736990916470006.0
841.3186645507812,807.069580078125,799.010986328125,836.08056640625,1736990916470186.0
834.8717651367188,799.8168334960938,785.7142944335938,830.4395751953125,1736990916470201.0
828.02197265625,799.8168334960938,784.5054931640625,826.4102783203125,1736990916470252.0
830.8424682617188,795.7875366210938,783.2966918945312,827.6190185546875,1736990916470295.0
831.6483764648438,792.967041015625,784.1025390625,827.6190185546875,1736990916470309.0
830.03662109375,799.4139404296875,780.879150390625,825.2014770507812,1736990916470319.0
829.6337280273438,799.010986328125,781.6849975585938,828.8278198242188,1736990916470331.0
844.5421142578125,798.2051391601562,790.1465454101562,841.7216186523438,1736990916470341.0
853.4066162109375,798.6080322265625,790.952392578125,844.1392211914062,1736990916512123.0
840.5128173828125,794.1758422851562,777.6557006835938,838.4981689453125,1736990916512148.0
830.4395751953125,801.025634765625,776.4468994140625,836.08056640625,1736990916512170.0
834.06591796875,809.084228515625,789.3406372070312,838.901123046875,1736990916512185.0
836.08056640625,811.5018310546875,796.1904907226562,843.3333129882812,1736990916512198.0
831.6483764648438,814.7252807617188,797.8021850585938,839.7069702148438,1736990916512210.0
838.901123046875,819.5604248046875,799.8168334960938,844.945068359375,1736990916512222.0
852.6007080078125,821.1721801757812,806.6666870117188,858.2417602539062,1736990916512235.0
841.7216186523438,808.6813354492188,797.3992919921875,846.1538696289062,1736990916512248.0
822.7838745117188,790.1465454101562,781.2820434570312,827.2161254882812,1736990916512260.0
828.02197265625,781.2820434570312,780.0732421875,825.6043701171875,1736990916512272.0
834.8717651367188,788.937744140625,786.5201416015625,827.2161254882812,1736990916512295.0
828.02197265625,796.996337890625,784.5054931640625,830.8424682617188,1736990916556121.0
828.02197265625,803.040283203125,784.1025390625,833.2600708007812,1736990916556174.0
834.06591796875,806.6666870117188,789.3406372070312,838.09521484375,1736990916556186.0
837.2893676757812,803.040283203125,793.3699340820312,844.1392211914062,1736990916556196.0
832.8571166992188,799.4139404296875,792.5640869140625,837.2893676757812,1736990916556204.0
834.06591796875,804.6520385742188,797.3992919921875,836.886474609375,1736990916556215.0
836.886474609375,803.4432373046875,795.7875366210938,836.4835205078125,1736990916556235.0
830.03662109375,796.5933837890625,783.2966918945312,830.4395751953125,1736990916556248.0
829.2307739257812,793.3699340820312,774.029296875,829.6337280273438,1736990916556256.0
836.886474609375,795.7875366210938,774.4322509765625,831.6483764648438,1736990916556286.0
836.886474609375,801.8314819335938,785.7142944335938,831.2454223632812,1736990916556301.0
824.7985229492188,796.1904907226562,792.5640869140625,823.5897216796875,1736990916556318.0
821.1721801757812,793.3699340820312,794.1758422851562,821.97802734375,1736990916620948.0
832.4542236328125,797.3992919921875,801.4285888671875,837.6923217773438,1736990916621012.0
821.1721801757812,792.1611938476562,795.7875366210938,823.5897216796875,1736990916621022.0
805.4578857421875,792.967041015625,788.937744140625,808.2783813476562,1736990916621037.0
807.4725341796875,795.3846435546875,790.5494384765625,806.6666870117188,1736990916621047.0
807.4725341796875,799.010986328125,790.1465454101562,808.6813354492188,1736990916621055.0
809.4871826171875,797.8021850585938,791.3552856445312,809.4871826171875,1736990916621063.0
816.3369750976562,795.7875366210938,794.5787353515625,810.2930297851562,1736990916621073.0
813.91943359375,795.3846435546875,797.3992919921875,811.098876953125,1736990916621083.0
817.94873046875,801.8314819335938,799.010986328125,816.7399291992188,1736990916621250.0
817.5457763671875,801.8314819335938,789.7435913085938,813.113525390625,1736990916621267.0
826.00732421875,798.6080322265625,798.2051391601562,832.8571166992188,1736990916620994.0
815.93408203125,796.1904907226562,783.2966918945312,810.6959838867188,1736990916663988.0
808.2783813476562,793.3699340820312,778.8644409179688,804.6520385742188,1736990916664039.0
796.5933837890625,791.7582397460938,782.893798828125,797.3992919921875,1736990916666028.0
803.040283203125,790.1465454101562,791.3552856445312,799.010986328125,1736990916666058.0
811.098876953125,794.981689453125,796.996337890625,809.89013671875,1736990916666068.0
802.6373901367188,799.4139404296875,801.4285888671875,814.3223266601562,1736990916666076.0
804.2490844726562,801.4285888671875,800.6226806640625,811.5018310546875,1736990916666085.0
802.6373901367188,802.6373901367188,792.967041015625,807.87548828125,1736990916666093.0
799.010986328125,801.4285888671875,794.5787353515625,807.87548828125,1736990916666103.0
805.054931640625,803.8461303710938,794.5787353515625,811.098876953125,1736990916666110.0
802.6373901367188,805.8607788085938,789.3406372070312,805.8607788085938,1736990916666130.0
801.8314819335938,795.3846435546875,788.937744140625,800.6226806640625,1736990916666142.0
805.4578857421875,789.3406372070312,796.5933837890625,808.2783813476562,1736990916730958.0
807.069580078125,803.4432373046875,791.7582397460938,804.6520385742188,1736990916731035.0
807.069580078125,807.4725341796875,779.6703491210938,806.2637329101562,1736990916731048.0
805.054931640625,794.5787353515625,802.6373901367188,806.6666870117188,1736990916731020.0
806.6666870117188,794.981689453125,785.7142944335938,805.4578857421875,1736990916731061.0
793.7728881835938,789.7435913085938,790.5494384765625,795.3846435546875,1736990916731113.0
788.1318969726562,792.967041015625,781.6849975585938,788.5347900390625,1736990916731142.0
796.996337890625,796.5933837890625,780.879150390625,792.5640869140625,1736990916731154.0
793.7728881835938,801.4285888671875,784.908447265625,790.5494384765625,1736990916731183.0
793.3699340820312,797.3992919921875,793.3699340820312,793.3699340820312,1736990916731197.0
803.040283203125,789.7435913085938,798.6080322265625,801.8314819335938,1736990916731465.0
810.6959838867188,795.3846435546875,798.2051391601562,803.8461303710938,1736990916731486.0
804.6520385742188,791.7582397460938,798.6080322265625,803.4432373046875,1736990916751932.0
806.2637329101562,794.5787353515625,801.025634765625,805.4578857421875,1736990916751986.0
812.3076782226562,800.6226806640625,798.6080322265625,802.2344360351562,1736990916752018.0
798.6080322265625,789.7435913085938,795.7875366210938,794.5787353515625,1736990916752196.0
801.8314819335938,795.7875366210938,793.7728881835938,806.6666870117188,1736990916753024.0
795.3846435546875,791.3552856445312,785.3113403320312,795.7875366210938,1736990916753033.0
795.7875366210938,790.1465454101562,799.010986328125,799.8168334960938,1736990916752992.0
791.3552856445312,792.967041015625,780.4761962890625,788.5347900390625,1736990916753051.0
798.2051391601562,794.5787353515625,779.6703491210938,790.5494384765625,1736990916753060.0
813.5164794921875,796.5933837890625,786.923095703125,809.084228515625,1736990916753068.0
830.8424682617188,807.069580078125,805.054931640625,830.4395751953125,1736990916753077.0
803.040283203125,795.7875366210938,798.6080322265625,807.069580078125,1736990916753014.0
816.7399291992188,799.4139404296875,801.4285888671875,809.4871826171875,1736990916795085.0
794.981689453125,785.7142944335938,786.5201416015625,776.4468994140625,1736990916795113.0
794.1758422851562,786.5201416015625,779.6703491210938,774.029296875,1736990916795135.0
788.937744140625,796.996337890625,782.087890625,785.3113403320312,1736990916795154.0
784.1025390625,802.2344360351562,783.6996459960938,785.7142944335938,1736990916795178.0
787.7289428710938,799.010986328125,778.4615478515625,780.0732421875,1736990916795192.0
800.2197875976562,791.3552856445312,776.8497924804688,785.3113403320312,1736990916795205.0
805.054931640625,794.1758422851562,782.087890625,790.952392578125,1736990916795217.0
799.010986328125,807.87548828125,785.7142944335938,788.5347900390625,1736990916795229.0
791.7582397460938,811.5018310546875,784.1025390625,781.6849975585938,1736990916795243.0
790.952392578125,814.3223266601562,785.3113403320312,782.4908447265625,1736990916795255.0
796.5933837890625,815.5311279296875,788.1318969726562,788.5347900390625,1736990916795267.0
792.1611938476562,798.2051391601562,778.8644409179688,782.893798828125,1736990916858102.0
797.3992919921875,800.6226806640625,776.4468994140625,782.893798828125,1736990916858140.0
809.89013671875,817.1428833007812,787.7289428710938,796.5933837890625,1736990916858169.0
801.025634765625,806.6666870117188,785.7142944335938,793.3699340820312,1736990916858180.0
791.3552856445312,792.5640869140625,782.087890625,787.3259887695312,1736990916858191.0
790.952392578125,791.7582397460938,782.4908447265625,791.3552856445312,1736990916858214.0
798.2051391601562,802.2344360351562,778.8644409179688,795.7875366210938,1736990916859197.0
807.87548828125,809.4871826171875,779.6703491210938,805.8607788085938,1736990916859263.0
797.8021850585938,806.2637329101562,780.0732421875,800.2197875976562,1736990916859276.0
785.7142944335938,804.2490844726562,783.6996459960938,787.7289428710938,1736990916859286.0
782.4908447265625,803.8461303710938,789.3406372070312,788.5347900390625,1736990916859295.0
792.1611938476562,807.87548828125,789.3406372070312,788.937744140625,1736990916859304.0
809.89013671875,803.4432373046875,798.6080322265625,797.3992919921875,1736990916902062.0
807.4725341796875,800.6226806640625,803.040283203125,809.084228515625,1736990916902100.0
792.1611938476562,803.040283203125,784.908447265625,794.1758422851562,1736990916902114.0
801.4285888671875,807.4725341796875,796.5933837890625,805.8607788085938,1736990916902108.0
784.908447265625,794.981689453125,778.4615478515625,787.3259887695312,1736990916902121.0
788.5347900390625,795.7875366210938,786.1171875,793.7728881835938,1736990916902126.0
793.7728881835938,804.6520385742188,791.7582397460938,805.054931640625,1736990916902133.0
796.996337890625,801.8314819335938,788.5347900390625,801.4285888671875,1736990916902184.0
789.7435913085938,787.7289428710938,788.1318969726562,793.3699340820312,1736990916902194.0
782.4908447265625,782.893798828125,792.1611938476562,784.908447265625,1736990916902205.0
778.4615478515625,788.5347900390625,792.967041015625,782.4908447265625,1736990916902215.0
786.5201416015625,788.1318969726562,790.952392578125,790.1465454101562,1736990916902224.0
801.4285888671875,794.5787353515625,799.010986328125,796.996337890625,1736990916944283.0
799.4139404296875,798.6080322265625,792.967041015625,803.8461303710938,1736990916944366.0
794.5787353515625,791.7582397460938,784.908447265625,796.1904907226562,1736990916944379.0
782.087890625,789.3406372070312,783.6996459960938,791.7582397460938,1736990916944393.0
784.1025390625,784.1025390625,786.923095703125,790.1465454101562,1736990916944402.0
807.4725341796875,805.4578857421875,805.4578857421875,797.3992919921875,1736990916944336.0
802.2344360351562,805.054931640625,801.4285888671875,799.8168334960938,1736990916944353.0
788.937744140625,781.2820434570312,784.908447265625,790.1465454101562,1736990916944412.0
795.3846435546875,791.3552856445312,795.7875366210938,796.996337890625,1736990916945659.0
807.4725341796875,806.6666870117188,808.6813354492188,806.2637329101562,1736990916945689.0
803.4432373046875,790.1465454101562,799.4139404296875,794.981689453125,1736990916945698.0
783.2966918945312,778.4615478515625,784.1025390625,779.6703491210938,1736990916945706.0
771.2088012695312,784.908447265625,782.4908447265625,777.2527465820312,1736990916987977.0
777.6557006835938,784.5054931640625,787.7289428710938,781.2820434570312,1736990916988029.0
795.3846435546875,795.7875366210938,790.5494384765625,795.3846435546875,1736990916988047.0
798.2051391601562,799.8168334960938,788.5347900390625,799.8168334960938,1736990916988058.0
788.1318969726562,791.3552856445312,792.967041015625,792.967041015625,1736990916988212.0
783.6996459960938,786.5201416015625,789.7435913085938,788.5347900390625,1736990916988232.0
786.923095703125,784.908447265625,780.0732421875,788.5347900390625,1736990916988241.0
792.1611938476562,786.923095703125,792.1611938476562,793.7728881835938,1736990916988248.0
795.7875366210938,802.2344360351562,807.069580078125,801.025634765625,1736990916988256.0
788.937744140625,799.8168334960938,804.2490844726562,795.3846435546875,1736990916988264.0
782.893798828125,779.2673950195312,795.7875366210938,789.3406372070312,1736990916988271.0
794.1758422851562,783.2966918945312,792.1611938476562,794.981689453125,1736990916988279.0
796.1904907226562,801.4285888671875,796.996337890625,795.3846435546875,1736990917031952.0
782.087890625,807.87548828125,794.1758422851562,783.2966918945312,1736990917031991.0
796.1904907226562,814.3223266601562,793.7728881835938,787.3259887695312,1736990917032004.0
776.4468994140625,803.4432373046875,772.0146484375,771.6116943359375,1736990917032027.0
784.1025390625,803.040283203125,773.2234497070312,774.4322509765625,1736990917032033.0
786.5201416015625,811.5018310546875,788.5347900390625,781.2820434570312,1736990917031998.0
782.087890625,806.2637329101562,785.7142944335938,776.4468994140625,1736990917032010.0
787.3259887695312,806.2637329101562,776.8497924804688,770.0,1736990917032040.0
785.3113403320312,813.113525390625,776.0439453125,759.5238037109375,1736990917032049.0
785.7142944335938,816.3369750976562,778.8644409179688,762.3442993164062,1736990917032055.0
798.2051391601562,819.1575317382812,781.6849975585938,778.05859375,1736990917032828.0
809.4871826171875,819.96337890625,788.1318969726562,786.5201416015625,1736990917032855.0
803.8461303710938,817.5457763671875,789.7435913085938,778.8644409179688,1736990917076051.0
792.1611938476562,817.94873046875,790.5494384765625,772.0146484375,1736990917076071.0
778.4615478515625,813.5164794921875,784.5054931640625,771.6116943359375,1736990917076084.0
778.8644409179688,805.054931640625,776.4468994140625,769.1941528320312,1736990917076097.0
795.7875366210938,810.6959838867188,779.6703491210938,779.2673950195312,1736990917076107.0
809.084228515625,811.90478515625,783.6996459960938,783.2966918945312,1736990917076118.0
800.6226806640625,800.6226806640625,776.4468994140625,780.879150390625,1736990917076131.0
795.3846435546875,799.8168334960938,772.4176025390625,784.1025390625,1736990917076143.0
794.981689453125,811.90478515625,780.879150390625,784.1025390625,1736990917076167.0
791.3552856445312,813.113525390625,792.5640869140625,792.5640869140625,1736990917076184.0
798.2051391601562,808.2783813476562,797.3992919921875,799.4139404296875,1736990917076196.0
801.025634765625,804.6520385742188,794.5787353515625,795.3846435546875,1736990917076205.0
794.981689453125,800.6226806640625,787.3259887695312,793.3699340820312,1736990917138914.0
795.7875366210938,802.2344360351562,788.5347900390625,792.967041015625,1736990917138953.0
796.5933837890625,800.6226806640625,798.2051391601562,802.6373901367188,1736990917138966.0
798.2051391601562,795.7875366210938,792.967041015625,797.8021850585938,1736990917138972.0
796.996337890625,793.3699340820312,788.5347900390625,791.7582397460938,1736990917138978.0
803.040283203125,791.7582397460938,786.1171875,793.7728881835938,1736990917138983.0
800.2197875976562,803.040283203125,796.996337890625,802.2344360351562,1736990917138989.0
798.2051391601562,808.2783813476562,797.3992919921875,797.8021850585938,1736990917138994.0
799.4139404296875,806.6666870117188,788.937744140625,794.981689453125,1736990917139005.0
794.1758422851562,803.8461303710938,793.3699340820312,795.7875366210938,1736990917139020.0
795.3846435546875,805.4578857421875,797.3992919921875,799.4139404296875,1736990917138960.0
794.981689453125,799.8168334960938,799.010986328125,796.996337890625,1736990917139029.0
804.2490844726562,796.996337890625,800.2197875976562,801.8314819335938,1736990917182979.0
807.4725341796875,797.3992919921875,795.3846435546875,799.4139404296875,1736990917183034.0
802.6373901367188,795.3846435546875,794.981689453125,802.6373901367188,1736990917183050.0
801.025634765625,794.981689453125,795.7875366210938,801.4285888671875,1736990917183060.0
796.5933837890625,795.7875366210938,792.967041015625,797.3992919921875,1736990917183281.0
799.4139404296875,794.1758422851562,796.5933837890625,802.2344360351562,1736990917183304.0
799.8168334960938,793.3699340820312,799.010986328125,801.8314819335938,1736990917183316.0
793.3699340820312,799.4139404296875,794.5787353515625,794.1758422851562,1736990917183369.0
791.7582397460938,805.054931640625,790.1465454101562,789.7435913085938,1736990917183384.0
787.7289428710938,800.2197875976562,797.8021850585938,795.7875366210938,1736990917183398.0
796.5933837890625,795.3846435546875,806.6666870117188,805.8607788085938,1736990917183410.0
798.6080322265625,787.3259887695312,797.8021850585938,797.3992919921875,1736990917183419.0
792.5640869140625,780.879150390625,784.1025390625,790.1465454101562,1736990917225943.0
792.1611938476562,786.5201416015625,781.6849975585938,791.3552856445312,1736990917225991.0
799.8168334960938,800.2197875976562,790.952392578125,796.5933837890625,1736990917226030.0
793.7728881835938,794.1758422851562,783.6996459960938,794.1758422851562,1736990917226038.0
796.5933837890625,796.5933837890625,786.923095703125,794.1758422851562,1736990917226048.0
786.5201416015625,787.7289428710938,783.6996459960938,780.879150390625,1736990917226002.0
788.1318969726562,787.3259887695312,786.1171875,777.6557006835938,1736990917226011.0
798.2051391601562,795.3846435546875,790.1465454101562,787.3259887695312,1736990917226021.0
799.8168334960938,801.025634765625,792.967041015625,796.1904907226562,1736990917226056.0
798.6080322265625,795.7875366210938,793.7728881835938,792.967041015625,1736990917226324.0
803.040283203125,794.981689453125,793.7728881835938,795.3846435546875,1736990917226343.0
802.2344360351562,794.1758422851562,793.3699340820312,794.981689453125,1736990917226357.0
794.1758422851562,794.981689453125,795.7875366210938,791.7582397460938,1736990917288999.0
790.1465454101562,799.4139404296875,793.7728881835938,794.5787353515625,1736990917289072.0
783.6996459960938,796.5933837890625,787.3259887695312,790.1465454101562,1736990917289998.0
795.3846435546875,797.3992919921875,795.3846435546875,798.6080322265625,1736990917290024.0
819.1575317382812,803.8461303710938,807.87548828125,811.90478515625,1736990917290036.0
812.3076782226562,801.025634765625,801.8314819335938,802.2344360351562,1736990917290046.0
799.8168334960938,794.5787353515625,794.1758422851562,792.5640869140625,1736990917290090.0
788.1318969726562,790.952392578125,792.967041015625,788.5347900390625,1736990917290101.0
779.2673950195312,790.1465454101562,789.3406372070312,790.5494384765625,1736990917290110.0
784.908447265625,791.7582397460938,788.937744140625,794.981689453125,1736990917290119.0
788.937744140625,789.7435913085938,788.1318969726562,790.1465454101562,1736990917290301.0
789.7435913085938,791.7582397460938,790.952392578125,792.5640869140625,1736990917290336.0
804.2490844726562,793.3699340820312,801.025634765625,804.2490844726562,1736990917311972.0
805.8607788085938,792.967041015625,796.5933837890625,802.2344360351562,1736990917312019.0
787.7289428710938,801.4285888671875,787.3259887695312,788.5347900390625,1736990917312026.0
783.2966918945312,800.2197875976562,788.937744140625,782.893798828125,1736990917312032.0
787.7289428710938,801.4285888671875,792.1611938476562,783.2966918945312,1736990917312039.0
794.981689453125,810.6959838867188,799.8168334960938,789.7435913085938,1736990917312053.0
795.3846435546875,806.6666870117188,801.025634765625,793.3699340820312,1736990917312080.0
794.5787353515625,798.2051391601562,794.5787353515625,791.7582397460938,1736990917312104.0
797.3992919921875,799.010986328125,796.1904907226562,798.2051391601562,1736990917312115.0
799.8168334960938,804.6520385742188,799.010986328125,799.8168334960938,1736990917312126.0
801.4285888671875,803.8461303710938,794.1758422851562,796.5933837890625,1736990917312138.0
792.1611938476562,792.1611938476562,788.937744140625,793.7728881835938,1736990917312149.0
787.7289428710938,788.5347900390625,790.1465454101562,789.3406372070312,1736990917354028.0
794.981689453125,793.7728881835938,794.1758422851562,794.5787353515625,1736990917354057.0
803.8461303710938,796.1904907226562,795.7875366210938,803.8461303710938,1736990917354069.0
806.2637329101562,796.996337890625,797.3992919921875,802.2344360351562,1736990917354078.0
796.1904907226562,797.3992919921875,790.5494384765625,790.5494384765625,1736990917354921.0
790.952392578125,788.5347900390625,782.4908447265625,784.908447265625,1736990917354946.0
792.967041015625,780.0732421875,784.908447265625,782.893798828125,1736990917354956.0
796.1904907226562,784.1025390625,790.1465454101562,786.5201416015625,1736990917354964.0
795.7875366210938,791.3552856445312,790.5494384765625,790.952392578125,1736990917354973.0
792.5640869140625,797.8021850585938,789.3406372070312,789.3406372070312,1736990917354981.0
797.8021850585938,803.8461303710938,800.6226806640625,799.010986328125,1736990917354990.0
796.996337890625,799.4139404296875,798.6080322265625,799.8168334960938,1736990917354998.0
781.6849975585938,786.5201416015625,777.2527465820312,785.3113403320312,1736990917398042.0
784.1025390625,788.1318969726562,784.1025390625,784.908447265625,1736990917398077.0
776.0439453125,788.937744140625,777.2527465820312,781.6849975585938,1736990917398066.0
788.1318969726562,790.1465454101562,783.6996459960938,785.7142944335938,1736990917398086.0
790.1465454101562,795.7875366210938,787.7289428710938,792.967041015625,1736990917398150.0
791.3552856445312,792.1611938476562,792.1611938476562,796.1904907226562,1736990917398180.0
794.5787353515625,794.1758422851562,792.5640869140625,802.2344360351562,1736990917398195.0
801.8314819335938,801.025634765625,792.967041015625,809.084228515625,1736990917398208.0
798.6080322265625,800.6226806640625,795.7875366210938,805.054931640625,1736990917398218.0
796.5933837890625,796.996337890625,804.2490844726562,798.6080322265625,1736990917398227.0
799.4139404296875,792.1611938476562,815.5311279296875,799.4139404296875,1736990917398237.0
805.4578857421875,791.3552856445312,810.6959838867188,804.2490844726562,1736990917398247.0
811.5018310546875,799.8168334960938,803.040283203125,803.4432373046875,1736990917461953.0
812.7106323242188,805.8607788085938,799.010986328125,795.3846435546875,1736990917462001.0
813.91943359375,813.91943359375,794.981689453125,800.2197875976562,1736990917462014.0
809.4871826171875,810.6959838867188,789.7435913085938,798.2051391601562,1736990917462025.0
800.2197875976562,794.5787353515625,785.3113403320312,788.937744140625,1736990917462073.0
791.7582397460938,789.3406372070312,787.7289428710938,787.3259887695312,1736990917462113.0
793.7728881835938,790.5494384765625,794.1758422851562,788.937744140625,1736990917462996.0
799.010986328125,790.5494384765625,798.6080322265625,796.5933837890625,1736990917463022.0
790.952392578125,790.5494384765625,792.1611938476562,797.3992919921875,1736990917463037.0
797.3992919921875,792.967041015625,790.952392578125,797.8021850585938,1736990917463050.0
811.098876953125,807.87548828125,803.4432373046875,811.5018310546875,1736990917463060.0
811.098876953125,817.5457763671875,804.2490844726562,823.1868286132812,1736990917463083.0
801.4285888671875,803.8461303710938,788.5347900390625,807.87548828125,1736990917505995.0
781.2820434570312,782.4908447265625,789.7435913085938,778.4615478515625,1736990917506049.0
788.5347900390625,784.5054931640625,794.5787353515625,780.4761962890625,1736990917506060.0
793.7728881835938,785.3113403320312,794.1758422851562,785.3113403320312,1736990917506069.0
785.3113403320312,788.5347900390625,796.1904907226562,786.1171875,1736990917506084.0
795.3846435546875,802.6373901367188,801.025634765625,798.6080322265625,1736990917506094.0
790.952392578125,787.7289428710938,784.908447265625,788.937744140625,1736990917506035.0
803.040283203125,799.4139404296875,801.025634765625,803.4432373046875,1736990917506102.0
782.4908447265625,787.3259887695312,795.7875366210938,787.3259887695312,1736990917506111.0
778.4615478515625,788.5347900390625,795.3846435546875,784.1025390625,1736990917506118.0
793.7728881835938,795.3846435546875,802.2344360351562,787.7289428710938,1736990917506128.0
798.6080322265625,800.6226806640625,803.4432373046875,791.7582397460938,1736990917506139.0
804.6520385742188,801.4285888671875,805.4578857421875,805.054931640625,1736990917547920.0
791.7582397460938,790.5494384765625,801.8314819335938,800.6226806640625,1736990917547974.0
782.4908447265625,789.3406372070312,791.7582397460938,789.3406372070312,1736990917547979.0
779.2673950195312,790.1465454101562,785.7142944335938,782.087890625,1736990917547985.0
781.6849975585938,790.5494384765625,784.908447265625,789.3406372070312,1736990917547990.0
790.1465454101562,793.7728881835938,780.879150390625,794.5787353515625,1736990917547996.0
804.2490844726562,795.3846435546875,805.054931640625,806.2637329101562,1736990917547967.0
798.6080322265625,799.8168334960938,788.937744140625,802.2344360351562,1736990917548001.0
792.967041015625,796.5933837890625,799.4139404296875,805.8607788085938,1736990917548613.0
790.1465454101562,789.3406372070312,807.4725341796875,800.2197875976562,1736990917548626.0
793.3699340820312,792.5640869140625,809.4871826171875,796.996337890625,1736990917548632.0
797.3992919921875,795.7875366210938,803.4432373046875,796.996337890625,1736990917548642.0
802.2344360351562,798.6080322265625,806.2637329101562,801.4285888671875,1736990917589964.0
792.5640869140625,785.7142944335938,793.3699340820312,790.952392578125,1736990917590034.0
787.7289428710938,789.3406372070312,802.2344360351562,791.7582397460938,1736990917590016.0
803.4432373046875,796.5933837890625,795.7875366210938,794.981689453125,1736990917590044.0
794.5787353515625,802.6373901367188,799.010986328125,795.7875366210938,1736990917590073.0
801.025634765625,805.4578857421875,797.3992919921875,801.4285888671875,1736990917590098.0
802.2344360351562,797.3992919921875,792.967041015625,803.040283203125,1736990917590130.0
797.3992919921875,788.1318969726562,780.4761962890625,802.2344360351562,1736990917590147.0
797.3992919921875,795.3846435546875,780.879150390625,806.6666870117188,1736990917590157.0
804.6520385742188,810.6959838867188,797.8021850585938,807.4725341796875,1736990917590169.0
794.981689453125,801.8314819335938,794.1758422851562,788.937744140625,1736990917590356.0
786.5201416015625,792.5640869140625,791.7582397460938,784.5054931640625,1736990917590399.0
791.7582397460938,793.3699340820312,789.3406372070312,783.6996459960938,1736990917652953.0
794.981689453125,795.3846435546875,787.3259887695312,781.6849975585938,1736990917653000.0
815.5311279296875,811.098876953125,805.054931640625,813.113525390625,1736990917653024.0
812.3076782226562,813.91943359375,806.6666870117188,810.2930297851562,1736990917653033.0
799.010986328125,805.054931640625,799.8168334960938,797.3992919921875,1736990917653041.0
801.025634765625,799.8168334960938,794.981689453125,796.1904907226562,1736990917653014.0
810.2930297851562,803.8461303710938,793.3699340820312,801.8314819335938,1736990917653050.0
808.6813354492188,805.4578857421875,786.1171875,801.4285888671875,1736990917653194.0
803.4432373046875,804.6520385742188,792.5640869140625,800.2197875976562,1736990917653356.0
798.6080322265625,806.6666870117188,795.7875366210938,798.6080322265625,1736990917653427.0
785.7142944335938,799.8168334960938,793.3699340820312,786.5201416015625,1736990917654097.0
782.4908447265625,790.1465454101562,790.1465454101562,780.879150390625,1736990917654121.0
780.4761962890625,791.7582397460938,788.1318969726562,783.2966918945312,1736990917695948.0
794.981689453125,787.3259887695312,785.3113403320312,791.7582397460938,1736990917695998.0
789.7435913085938,790.952392578125,790.952392578125,789.7435913085938,1736990917695984.0
802.2344360351562,797.8021850585938,788.937744140625,795.7875366210938,1736990917696003.0
810.2930297851562,802.2344360351562,794.981689453125,798.2051391601562,1736990917696008.0
813.113525390625,795.7875366210938,801.8314819335938,806.6666870117188,1736990917696013.0
794.981689453125,784.1025390625,788.937744140625,789.7435913085938,1736990917695992.0
811.5018310546875,800.6226806640625,806.6666870117188,800.2197875976562,1736990917696076.0
811.5018310546875,796.1904907226562,809.084228515625,809.084228515625,1736990917696038.0
796.996337890625,795.7875366210938,794.981689453125,788.1318969726562,1736990917696089.0
784.5054931640625,783.6996459960938,776.0439453125,782.4908447265625,1736990917696100.0
787.7289428710938,780.0732421875,772.8204956054688,786.923095703125,1736990917696109.0
792.1611938476562,788.937744140625,778.4615478515625,788.937744140625,1736990917739001.0
789.7435913085938,803.4432373046875,785.7142944335938,792.1611938476562,1736990917739027.0
787.3259887695312,800.6226806640625,794.981689453125,798.6080322265625,1736990917739046.0
789.3406372070312,785.3113403320312,794.981689453125,799.4139404296875,1736990917739063.0
795.7875366210938,792.5640869140625,789.7435913085938,797.8021850585938,1736990917739075.0
798.6080322265625,800.6226806640625,788.1318969726562,804.6520385742188,1736990917739087.0
792.1611938476562,795.3846435546875,792.5640869140625,801.4285888671875,1736990917739095.0
785.3113403320312,788.1318969726562,785.7142944335938,784.908447265625,1736990917739103.0
786.5201416015625,786.923095703125,781.6849975585938,788.937744140625,1736990917739113.0
789.3406372070312,789.3406372070312,787.3259887695312,795.3846435546875,1736990917739121.0
787.7289428710938,787.3259887695312,787.7289428710938,796.996337890625,1736990917739130.0
789.7435913085938,788.5347900390625,791.7582397460938,799.4139404296875,1736990917739141.0
796.5933837890625,798.6080322265625,797.8021850585938,803.040283203125,1736990917781958.0
797.3992919921875,796.5933837890625,805.4578857421875,803.8461303710938,1736990917782040.0
797.3992919921875,796.1904907226562,800.2197875976562,801.4285888671875,1736990917782050.0
802.6373901367188,805.4578857421875,798.6080322265625,803.040283203125,1736990917782060.0
796.1904907226562,803.8461303710938,790.5494384765625,795.3846435546875,1736990917782069.0
778.05859375,788.5347900390625,779.2673950195312,779.6703491210938,1736990917782105.0
770.0,782.087890625,778.8644409179688,774.029296875,1736990917782162.0
782.893798828125,784.1025390625,788.1318969726562,778.8644409179688,1736990917782179.0
786.1171875,792.5640869140625,791.7582397460938,779.2673950195312,1736990917782203.0
778.8644409179688,796.5933837890625,788.5347900390625,778.05859375,1736990917782218.0
801.025634765625,794.5787353515625,797.3992919921875,807.4725341796875,1736990917782012.0
801.8314819335938,791.3552856445312,803.4432373046875,807.4725341796875,1736990917782030.0
778.4615478515625,792.967041015625,786.5201416015625,783.2966918945312,1736990917845946.0
807.87548828125,801.8314819335938,802.2344360351562,801.8314819335938,1736990917846007.0
803.8461303710938,805.8607788085938,794.5787353515625,805.054931640625,1736990917846017.0
793.7728881835938,791.7582397460938,795.3846435546875,792.5640869140625,1736990917845992.0
794.5787353515625,798.2051391601562,786.1171875,797.8021850585938,1736990917846214.0
785.3113403320312,796.5933837890625,778.4615478515625,785.7142944335938,1736990917846268.0
782.087890625,794.5787353515625,776.4468994140625,779.6703491210938,1736990917846287.0
785.3113403320312,792.1611938476562,785.3113403320312,783.2966918945312,1736990917846296.0
787.3259887695312,794.5787353515625,796.1904907226562,794.1758422851562,1736990917846312.0
800.6226806640625,796.996337890625,801.4285888671875,801.025634765625,1736990917846327.0
812.3076782226562,797.8021850585938,805.4578857421875,801.4285888671875,1736990917846339.0
807.069580078125,795.3846435546875,806.2637329101562,804.6520385742188,1736990917846351.0
803.8461303710938,790.1465454101562,798.2051391601562,807.4725341796875,1736990917888076.0
801.025634765625,789.7435913085938,792.5640869140625,798.6080322265625,1736990917888132.0
795.3846435546875,801.4285888671875,797.3992919921875,795.7875366210938,1736990917888925.0
791.7582397460938,806.6666870117188,804.2490844726562,803.8461303710938,1736990917888956.0
789.7435913085938,799.8168334960938,792.967041015625,799.8168334960938,1736990917888972.0
794.5787353515625,803.8461303710938,780.4761962890625,799.8168334960938,1736990917888984.0
